Data from QEP037381__51__10-04-09-928.txt Node

Date: Wed Dec 21 10:04:09 EST 2022
User: dcclab
Spectrometer: QEP03738
Trigger mode: 4
Integration Time (sec): 1.000000E1
Scans to average: 1
Electric dark correction enabled: true
Nonlinearity correction enabled: false
Boxcar width: 0
XAxis mode: Wavelengths
Number of Pixels in Spectrum: 1044
>>>>>Begin Spectral Data<<<<<
784.041	13
784.3	0
784.558	-3
784.817	-1
785.075	109694
785.334	18535
785.592	8513
785.851	5857
786.109	4376
786.368	3393
786.626	2753
786.884	2293
787.143	1920
787.401	1586
787.659	1442
787.917	1205
788.175	1114
788.433	983
788.691	872
788.949	816
789.207	769
789.465	664
789.723	646
789.98	593
790.238	622
790.496	589
790.753	564
791.011	592
791.268	520
791.526	533
791.783	527
792.041	499
792.298	428
792.556	483
792.813	479
793.07	445
793.327	427
793.584	519
793.841	423
794.099	435
794.356	501
794.613	408
794.869	442
795.126	420
795.383	396
795.64	408
795.897	354
796.153	416
796.41	407
796.667	370
796.923	394
797.18	387
797.436	419
797.693	384
797.949	420
798.206	458
798.462	365
798.718	424
798.974	403
799.231	423
799.487	427
799.743	433
799.999	457
800.255	422
800.511	413
800.767	439
801.023	416
801.279	447
801.534	457
801.79	498
802.046	466
802.302	566
802.557	596
802.813	680
803.068	734
803.324	984
803.579	1238
803.835	1633
804.09	2189
804.345	2762
804.601	3472
804.856	4145
805.111	4770
805.366	5304
805.621	5550
805.876	5806
806.131	5929
806.386	5994
806.641	6056
806.896	6220
807.151	6309
807.406	6335
807.661	6480
807.915	6525
808.17	6641
808.425	6680
808.679	6672
808.934	6795
809.188	6820
809.443	6911
809.697	6959
809.951	6925
810.206	6992
810.46	7052
810.714	7150
810.968	7193
811.223	7114
811.477	7281
811.731	7311
811.985	7280
812.239	7278
812.493	7380
812.747	7415
813	7418
813.254	7472
813.508	7494
813.762	7473
814.015	7508
814.269	7484
814.522	7599
814.776	7761
815.03	7796
815.283	7887
815.536	8021
815.79	8138
816.043	8168
816.296	8257
816.55	8402
816.803	8454
817.056	8574
817.309	8585
817.562	8649
817.815	8711
818.068	8765
818.321	8858
818.574	8981
818.827	9046
819.079	9170
819.332	9372
819.585	9420
819.838	9554
820.09	9545
820.343	9636
820.595	9625
820.848	9749
821.1	9767
821.353	9760
821.605	9776
821.857	9804
822.11	9662
822.362	9719
822.614	9660
822.866	9765
823.118	9662
823.37	9788
823.622	9767
823.874	9784
824.126	9904
824.378	9762
824.63	9901
824.882	9856
825.134	9888
825.385	9836
825.637	9861
825.888	9738
826.14	9712
826.392	9699
826.643	9689
826.895	9602
827.146	9527
827.397	9522
827.649	9618
827.9	9535
828.151	9542
828.402	9561
828.653	9641
828.905	9602
829.156	9639
829.407	9587
829.658	9598
829.909	9678
830.159	9577
830.41	9540
830.661	9500
830.912	9413
831.162	9404
831.413	9355
831.664	9449
831.914	9385
832.165	9415
832.415	9435
832.666	9345
832.916	9476
833.167	9369
833.417	9424
833.667	9410
833.917	9297
834.168	9360
834.418	9347
834.668	9292
834.918	9235
835.168	9217
835.418	9143
835.668	9105
835.918	9213
836.167	9194
836.417	9086
836.667	9148
836.917	9106
837.166	8979
837.416	9046
837.666	9052
837.915	9027
838.165	9030
838.414	8925
838.663	8889
838.913	8940
839.162	8874
839.411	8936
839.661	8830
839.91	8855
840.159	8802
840.408	8904
840.657	8861
840.906	8888
841.155	8871
841.404	8783
841.653	8764
841.902	8781
842.15	8850
842.399	8869
842.648	8836
842.897	8777
843.145	8715
843.394	8685
843.642	8613
843.891	8628
844.139	8498
844.388	8561
844.636	8426
844.884	8486
845.133	8421
845.381	8430
845.629	8529
845.877	8403
846.125	8407
846.373	8347
846.621	8374
846.869	8415
847.117	8287
847.365	8245
847.613	8290
847.861	8261
848.108	8235
848.356	8217
848.604	8166
848.851	8217
849.099	8196
849.346	8261
849.594	8259
849.841	8266
850.089	8275
850.336	8251
850.583	8257
850.831	8249
851.078	8268
851.325	8180
851.572	8240
851.819	8174
852.066	7971
852.313	7876
852.56	7799
852.807	7780
853.054	7802
853.301	7829
853.548	7807
853.794	7911
854.041	7946
854.288	7852
854.534	8113
854.781	7955
855.028	7910
855.274	7939
855.52	7845
855.767	7784
856.013	7930
856.26	8085
856.506	7726
856.752	7758
856.998	7735
857.244	7700
857.49	7794
857.736	7787
857.982	7775
858.228	7795
858.474	7698
858.72	7640
858.966	7624
859.212	7530
859.458	7438
859.703	7422
859.949	7313
860.195	7282
860.44	7273
860.686	7175
860.931	7228
861.177	7197
861.422	7157
861.667	7117
861.913	7140
862.158	7099
862.403	7156
862.648	7187
862.893	7243
863.138	7191
863.384	7109
863.629	7175
863.873	7140
864.118	7097
864.363	7028
864.608	7095
864.853	7080
865.098	6946
865.342	7024
865.587	7032
865.832	6946
866.076	6918
866.321	6916
866.565	6844
866.81	6817
867.054	6893
867.298	6824
867.543	6791
867.787	6831
868.031	6782
868.275	6782
868.519	6760
868.764	6801
869.008	6741
869.252	6710
869.496	6684
869.739	6651
869.983	6719
870.227	6689
870.471	6674
870.715	6644
870.958	6734
871.202	6697
871.446	6696
871.689	6693
871.933	6731
872.176	6660
872.42	6652
872.663	6660
872.906	6727
873.15	6638
873.393	6583
873.636	6617
873.879	6595
874.122	6579
874.366	6397
874.609	6369
874.852	6323
875.095	6259
875.337	6275
875.58	6190
875.823	6195
876.066	6214
876.309	6262
876.551	6151
876.794	6092
877.037	6150
877.279	6059
877.522	6058
877.764	6128
878.007	6040
878.249	6074
878.491	6022
878.734	6093
878.976	6020
879.218	5968
879.46	5961
879.702	5948
879.945	5861
880.187	5809
880.429	5828
880.671	5793
880.912	5721
881.154	5749
881.396	5657
881.638	5741
881.88	5708
882.121	5639
882.363	5642
882.605	5717
882.846	5697
883.088	5659
883.329	5597
883.571	5676
883.812	5630
884.053	5776
884.295	5827
884.536	5987
884.777	5864
885.018	5861
885.259	5888
885.5	5725
885.742	6120
885.982	5798
886.223	5715
886.464	5622
886.705	5582
886.946	5575
887.187	5460
887.428	5463
887.668	5410
887.909	5257
888.15	5316
888.39	5248
888.631	5292
888.871	5196
889.111	5166
889.352	5178
889.592	5065
889.833	5034
890.073	5052
890.313	5041
890.553	4926
890.793	4966
891.033	4924
891.273	4845
891.513	4881
891.753	4907
891.993	4850
892.233	4919
892.473	4958
892.713	4892
892.952	4840
893.192	4871
893.432	4847
893.671	4846
893.911	4852
894.15	4777
894.39	4717
894.629	4710
894.869	4766
895.108	4678
895.347	4684
895.587	4695
895.826	4638
896.065	4604
896.304	4624
896.543	4631
896.782	4494
897.021	4574
897.26	4567
897.499	4619
897.738	4581
897.977	4514
898.216	4482
898.454	4412
898.693	4387
898.932	4394
899.17	4348
899.409	4385
899.647	4361
899.886	4296
900.124	4332
900.363	4345
900.601	4348
900.839	4349
901.078	4396
901.316	4365
901.554	4356
901.792	4369
902.03	4345
902.268	4353
902.506	4397
902.744	4308
902.982	4322
903.22	4246
903.458	4265
903.695	4193
903.933	4149
904.171	4078
904.409	4018
904.646	3975
904.884	3946
905.121	3957
905.359	3899
905.596	3836
905.833	3797
906.071	3795
906.308	3846
906.545	3793
906.783	3749
907.02	3809
907.257	3690
907.494	3714
907.731	3746
907.968	3751
908.205	3686
908.442	3683
908.679	3682
908.915	3653
909.152	3610
909.389	3553
909.626	3548
909.862	3543
910.099	3554
910.335	3553
910.572	3399
910.808	3523
911.045	3451
911.281	3458
911.518	3546
911.754	3420
911.99	3443
912.226	3401
912.463	3334
912.699	3383
912.935	3336
913.171	3312
913.407	3248
913.643	3302
913.879	3217
914.114	3203
914.35	3187
914.586	3182
914.822	3138
915.057	3144
915.293	3057
915.529	3050
915.764	3135
916	3092
916.235	3104
916.471	3090
916.706	3049
916.941	3016
917.177	3035
917.412	3064
917.647	3048
917.882	3031
918.117	3037
918.352	2995
918.588	3071
918.823	2963
919.057	2974
919.292	2847
919.527	2940
919.762	2840
919.997	2931
920.232	2797
920.466	2835
920.701	2745
920.935	2791
921.17	2769
921.405	2700
921.639	2761
921.873	2705
922.108	2773
922.342	2734
922.576	2646
922.811	2681
923.045	2725
923.279	2743
923.513	2622
923.747	2690
923.981	2638
924.215	2632
924.449	2630
924.683	2567
924.917	2543
925.151	2546
925.385	2599
925.618	2549
925.852	2552
926.086	2453
926.319	2574
926.553	2507
926.786	2531
927.02	2502
927.253	2592
927.486	2532
927.72	2481
927.953	2535
928.186	2477
928.42	2532
928.653	2460
928.886	2430
929.119	2503
929.352	2456
929.585	2462
929.818	2377
930.051	2431
930.284	2441
930.516	2335
930.749	2345
930.982	2389
931.215	2369
931.447	2269
931.68	2290
931.912	2336
932.145	2313
932.377	2307
932.61	2429
932.842	2202
933.074	2302
933.307	2269
933.539	2348
933.771	2345
934.003	2278
934.236	2354
934.468	2375
934.7	2256
934.932	2318
935.164	2258
935.395	2248
935.627	2251
935.859	2274
936.091	2179
936.323	2266
936.554	2279
936.786	2225
937.017	2178
937.249	2209
937.481	2156
937.712	2255
937.943	2187
938.175	2183
938.406	2169
938.637	2265
938.869	2143
939.1	2212
939.331	2131
939.562	2170
939.793	2175
940.024	2226
940.255	2196
940.486	2149
940.717	2132
940.948	2122
941.179	2085
941.409	2091
941.64	2080
941.871	2077
942.102	2056
942.332	2076
942.563	2124
942.793	2130
943.024	2070
943.254	2071
943.484	2129
943.715	2158
943.945	2104
944.175	2037
944.405	2002
944.636	2035
944.866	2084
945.096	2091
945.326	2002
945.556	2079
945.786	2085
946.016	2047
946.245	1999
946.475	1995
946.705	1997
946.935	2014
947.164	1996
947.394	1975
947.624	1996
947.853	2024
948.083	1974
948.312	1951
948.542	1895
948.771	1895
949	1900
949.23	1907
949.459	1917
949.688	1978
949.917	1923
950.146	1944
950.375	1971
950.604	1890
950.833	1964
951.062	1950
951.291	1920
951.52	1881
951.749	1904
951.978	1847
952.206	1857
952.435	1879
952.664	1925
952.892	1895
953.121	1879
953.349	1906
953.578	1910
953.806	1855
954.035	1811
954.263	1869
954.491	1801
954.719	1857
954.948	1804
955.176	1759
955.404	1753
955.632	1821
955.86	1826
956.088	1795
956.316	1822
956.544	1828
956.772	1781
956.999	1763
957.227	1856
957.455	1719
957.683	1785
957.91	1698
958.138	1700
958.365	1714
958.593	1678
958.82	1663
959.048	1744
959.275	1692
959.502	1691
959.73	1653
959.957	1713
960.184	1764
960.411	1645
960.638	1743
960.865	1665
961.092	1702
961.319	1625
961.546	1715
961.773	1745
962	1693
962.227	1754
962.454	1705
962.68	1651
962.907	1663
963.134	1655
963.36	1644
963.587	1690
963.813	1620
964.04	1658
964.266	1599
964.493	1694
964.719	1630
964.945	1662
965.171	1547
965.398	1644
965.624	1650
965.85	1551
966.076	1570
966.302	1589
966.528	1534
966.754	1596
966.98	1591
967.206	1567
967.431	1526
967.657	1605
967.883	1580
968.109	1572
968.334	1535
968.56	1526
968.785	1536
969.011	1494
969.236	1553
969.462	1507
969.687	1507
969.912	1576
970.138	1559
970.363	1491
970.588	1539
970.813	1487
971.038	1472
971.263	1482
971.488	1522
971.713	1555
971.938	1544
972.163	1455
972.388	1462
972.613	1459
972.838	1437
973.062	1446
973.287	1448
973.512	1384
973.736	1424
973.961	1440
974.185	1416
974.41	1448
974.634	1358
974.858	1398
975.083	1384
975.307	1433
975.531	1384
975.755	1329
975.98	1332
976.204	1290
976.428	1327
976.652	1320
976.876	1281
977.1	1329
977.324	1291
977.547	1327
977.771	1351
977.995	1348
978.219	1258
978.442	1398
978.666	1324
978.89	1303
979.113	1313
979.337	1285
979.56	1276
979.783	1364
980.007	1240
980.23	1309
980.453	1245
980.677	1310
980.9	1298
981.123	1210
981.346	1271
981.569	1268
981.792	1314
982.015	1255
982.238	1240
982.461	1242
982.684	1238
982.907	1206
983.129	1202
983.352	1251
983.575	1247
983.797	1247
984.02	1196
984.242	1197
984.465	1215
984.687	1243
984.91	1271
985.132	1222
985.354	1264
985.577	1224
985.799	1197
986.021	1123
986.243	1175
986.465	1179
986.687	1207
986.909	1257
987.131	1201
987.353	1190
987.575	1206
987.797	1171
988.019	1121
988.241	1193
988.462	1137
988.684	1193
988.906	1234
989.127	1257
989.349	1127
989.57	1184
989.792	1194
990.013	1201
990.234	1212
990.456	1237
990.677	1225
990.898	1158
991.119	1171
991.341	1196
991.562	1134
991.783	1191
992.004	1111
992.225	1082
992.446	1160
992.667	1083
992.887	1190
993.108	1062
993.329	1210
993.55	1120
993.77	1100
993.991	1094
994.212	1138
994.432	1114
994.653	1141
994.873	1116
995.093	1005
995.314	1054
995.534	1151
995.754	1148
995.975	1177
996.195	1070
996.415	1107
996.635	1094
996.855	1109
997.075	1072
997.295	1074
997.515	1072
997.735	1107
997.955	1112
998.174	1068
998.394	1078
998.614	1128
998.834	1070
999.053	1120
999.273	1108
999.492	1143
999.712	1098
999.931	1038
1000.151	1102
1000.37	1080
1000.589	1150
1000.809	1056
1001.028	1164
1001.247	1111
1001.466	1022
1001.685	1171
1001.904	1113
1002.123	1101
1002.342	1108
1002.561	1069
1002.78	1102
1002.999	1161
1003.218	1103
1003.436	1075
1003.655	1139
1003.874	1064
1004.092	1093
1004.311	1137
1004.53	1095
1004.748	1165
1004.966	1106
1005.185	1144
1005.403	1150
1005.622	1116
1005.84	1194
1006.058	1071
1006.276	1109
1006.494	1613
1006.712	1119
1006.931	1172
1007.149	1078
1007.367	1066
1007.584	1106
1007.802	1138
1008.02	1114
1008.238	1196
1008.456	1173
1008.673	1044
1008.891	1138
1009.109	1101
1009.326	1132
1009.544	1229
1009.761	1095
1009.979	1178
1010.196	1162
1010.413	1243
1010.631	1272
1010.848	1288
1011.065	1283
1011.282	1247
1011.5	1176
1011.717	1282
1011.934	1212
1012.151	1288
1012.368	1237
1012.585	1177
1012.801	1219
1013.018	1200
1013.235	1133
1013.452	1172
1013.669	1193
1013.885	1167
1014.102	1207
1014.318	1183
1014.535	1126
1014.751	1162
1014.968	1185
1015.184	1208
1015.401	1123
1015.617	1144
1015.833	1105
1016.049	1093
1016.266	1100
1016.482	1111
1016.698	1059
1016.914	1092
1017.13	1054
1017.346	1047
1017.562	1114
1017.778	1046
1017.993	1010
1018.209	1101
1018.425	1050
1018.641	1006
1018.856	1004
1019.072	1047
1019.288	1062
1019.503	1001
1019.719	935
1019.934	957
1020.149	1027
1020.365	986
1020.58	934
1020.795	983
1021.011	946
1021.226	920
1021.441	949
1021.656	884
1021.871	824
1022.086	846
1022.301	834
1022.516	826
1022.731	887
1022.946	821
1023.16	807
1023.375	795
1023.59	764
1023.804	726
1024.019	848
1024.234	711
1024.448	767
1024.663	709
1024.877	717
1025.092	754
1025.306	746
1025.52	670
1025.734	745
1025.949	693
1026.163	669
1026.377	612
1026.591	661
1026.805	609
1027.019	609
1027.233	550
1027.447	516
1027.661	615
1027.875	566
1028.088	587
1028.302	522
1028.516	528
1028.73	524
1028.943	516
1029.157	491
1029.37	450
1029.584	-2
1029.797	-1
1030.011	-3
1030.224	-3
