Data from QEP037381__84__14-53-55-876.txt Node

Date: Wed Dec 21 14:53:55 EST 2022
User: dcclab
Spectrometer: QEP03738
Trigger mode: 4
Integration Time (sec): 1.000000E1
Scans to average: 1
Electric dark correction enabled: true
Nonlinearity correction enabled: false
Boxcar width: 0
XAxis mode: Wavelengths
Number of Pixels in Spectrum: 1044
>>>>>Begin Spectral Data<<<<<
784.041	15
784.3	-2
784.558	-4
784.817	-3
785.075	106147
785.334	17810
785.592	8160
785.851	5622
786.109	4251
786.368	3324
786.626	2668
786.884	2205
787.143	1844
787.401	1510
787.659	1380
787.917	1179
788.175	1079
788.433	945
788.691	849
788.949	791
789.207	768
789.465	669
789.723	643
789.98	608
790.238	624
790.496	594
790.753	558
791.011	622
791.268	555
791.526	540
791.783	564
792.041	539
792.298	439
792.556	533
792.813	504
793.07	472
793.327	472
793.584	551
793.841	474
794.099	496
794.356	549
794.613	468
794.869	495
795.126	457
795.383	453
795.64	465
795.897	422
796.153	478
796.41	465
796.667	450
796.923	459
797.18	458
797.436	486
797.693	453
797.949	515
798.206	531
798.462	465
798.718	509
798.974	501
799.231	539
799.487	531
799.743	565
799.999	579
800.255	573
800.511	583
800.767	632
801.023	621
801.279	661
801.534	706
801.79	772
802.046	847
802.302	1034
802.557	1201
802.813	1536
803.068	1938
803.324	2701
803.579	3812
803.835	5299
804.09	7193
804.345	9447
804.601	11901
804.856	14422
805.111	16719
805.366	18530
805.621	19878
805.876	20792
806.131	21394
806.386	21976
806.641	22307
806.896	22769
807.151	23107
807.406	23348
807.661	23973
807.915	24400
808.17	24634
808.425	24979
808.679	25208
808.934	25537
809.188	25713
809.443	26058
809.697	26292
809.951	26530
810.206	26737
810.46	27118
810.714	27368
810.968	27592
811.223	27716
811.477	28095
811.731	28177
811.985	28419
812.239	28406
812.493	28581
812.747	28681
813	28927
813.254	29018
813.508	29273
813.762	29378
814.015	29471
814.269	29723
814.522	30025
814.776	30299
815.03	30700
815.283	31208
815.536	31683
815.79	32173
816.043	32670
816.296	32994
816.55	33522
816.803	33894
817.056	34333
817.309	34735
817.562	34880
817.815	35380
818.068	35720
818.321	36084
818.574	36352
818.827	36962
819.079	37488
819.332	38092
819.585	38554
819.838	39010
820.09	39250
820.343	39529
820.595	39682
820.848	39903
821.1	40185
821.353	40259
821.605	40161
821.857	40093
822.11	39958
822.362	39892
822.614	39791
822.866	39825
823.118	39815
823.37	40043
823.622	40097
823.874	40274
824.126	40534
824.378	40471
824.63	40614
824.882	40810
825.134	40710
825.385	40703
825.637	40596
825.888	40518
826.14	40402
826.392	40432
826.643	39998
826.895	39952
827.146	39866
827.397	39843
827.649	39884
827.9	39744
828.151	39856
828.402	40022
828.653	39991
828.905	40130
829.156	40478
829.407	40303
829.658	40241
829.909	40445
830.159	40467
830.41	40251
830.661	40092
830.912	39664
831.162	39623
831.413	39504
831.664	39592
831.914	39449
832.165	39407
832.415	39396
832.666	39623
832.916	39572
833.167	39574
833.417	39579
833.667	39418
833.917	39297
834.168	39220
834.418	39093
834.668	38977
834.918	38720
835.168	38709
835.418	38584
835.668	38481
835.918	38286
836.167	38146
836.417	38356
836.667	38183
836.917	38272
837.166	38243
837.416	38277
837.666	38183
837.915	38110
838.165	38034
838.414	38010
838.663	37871
838.913	37883
839.162	37812
839.411	37815
839.661	37561
839.91	37521
840.159	37565
840.408	37530
840.657	37580
840.906	37527
841.155	37438
841.404	37326
841.653	37555
841.902	37725
842.15	37825
842.399	37854
842.648	37777
842.897	37755
843.145	37433
843.394	37161
843.642	36958
843.891	36771
844.139	36547
844.388	36575
844.636	36248
844.884	36192
845.133	36320
845.381	36091
845.629	36230
845.877	36149
846.125	36167
846.373	36120
846.621	35964
846.869	35880
847.117	35679
847.365	35342
847.613	35354
847.861	35337
848.108	35416
848.356	35244
848.604	35189
848.851	35126
849.099	35136
849.346	35374
849.594	35402
849.841	35651
850.089	35787
850.336	35721
850.583	35805
850.831	35500
851.078	35273
851.325	35603
851.572	35319
851.819	35105
852.066	34439
852.313	33955
852.56	33816
852.807	33531
853.054	33375
853.301	33440
853.548	33659
853.794	33725
854.041	33927
854.288	33874
854.534	34213
854.781	34078
855.028	33977
855.274	34077
855.52	33940
855.767	33786
856.013	33905
856.26	34128
856.506	33417
856.752	33427
856.998	33592
857.244	33555
857.49	33692
857.736	33818
857.982	33838
858.228	33735
858.474	33521
858.72	33144
858.966	32871
859.212	32556
859.458	32256
859.703	31959
859.949	31724
860.195	31556
860.44	31467
860.686	31258
860.931	31229
861.177	31019
861.422	30896
861.667	30835
861.913	30831
862.158	30855
862.403	30924
862.648	30954
862.893	31037
863.138	31036
863.384	30813
863.629	30963
863.873	30834
864.118	30740
864.363	30593
864.608	30450
864.853	30365
865.098	30146
865.342	30060
865.587	30060
865.832	29953
866.076	29933
866.321	29760
866.565	29762
866.81	29540
867.054	29511
867.298	29522
867.543	29303
867.787	29311
868.031	29319
868.275	29192
868.519	29111
868.764	29042
869.008	29059
869.252	28993
869.496	28762
869.739	28731
869.983	28783
870.227	28821
870.471	28794
870.715	28989
870.958	28973
871.202	29071
871.446	29103
871.689	29067
871.933	29062
872.176	29090
872.42	29013
872.663	28870
872.906	28911
873.15	28864
873.393	28726
873.636	28692
873.879	28347
874.122	28077
874.366	27794
874.609	27597
874.852	27259
875.095	27245
875.337	27048
875.58	26912
875.823	26818
876.066	26678
876.309	26685
876.551	26438
876.794	26262
877.037	26348
877.279	26240
877.522	26324
877.764	26248
878.007	26117
878.249	26056
878.491	26083
878.734	26116
878.976	26054
879.218	25756
879.46	25700
879.702	25559
879.945	25448
880.187	25139
880.429	24942
880.671	24702
880.912	24769
881.154	24591
881.396	24476
881.638	24536
881.88	24542
882.121	24464
882.363	24444
882.605	24341
882.846	24329
883.088	24345
883.329	24269
883.571	24428
883.812	24558
884.053	25042
884.295	25606
884.536	25794
884.777	25622
885.018	25461
885.259	25242
885.5	24994
885.742	25403
885.982	24991
886.223	24810
886.464	24740
886.705	24445
886.946	24111
887.187	23790
887.428	23697
887.668	23057
887.909	22889
888.15	22578
888.39	22439
888.631	22423
888.871	22118
889.111	21963
889.352	21768
889.592	21517
889.833	21469
890.073	21326
890.313	21254
890.553	20988
890.793	20980
891.033	20992
891.273	20776
891.513	20697
891.753	20628
891.993	20584
892.233	20579
892.473	20594
892.713	20541
892.952	20596
893.192	20577
893.432	20543
893.671	20460
893.911	20405
894.15	20256
894.39	20084
894.629	20111
894.869	19978
895.108	19764
895.347	19719
895.587	19603
895.826	19526
896.065	19502
896.304	19404
896.543	19432
896.782	19384
897.021	19340
897.26	19266
897.499	19283
897.738	19129
897.977	18961
898.216	18876
898.454	18621
898.693	18571
898.932	18560
899.17	18446
899.409	18328
899.647	18374
899.886	18268
900.124	18356
900.363	18345
900.601	18258
900.839	18365
901.078	18350
901.316	18406
901.554	18585
901.792	18614
902.03	18523
902.268	18462
902.506	18468
902.744	18449
902.982	18410
903.22	17961
903.458	17777
903.695	17486
903.933	17321
904.171	17012
904.409	16802
904.646	16554
904.884	16362
905.121	16270
905.359	16046
905.596	15948
905.833	15722
906.071	15674
906.308	15638
906.545	15601
906.783	15473
907.02	15524
907.257	15461
907.494	15393
907.731	15329
907.968	15291
908.205	15229
908.442	15025
908.679	14950
908.915	14837
909.152	14792
909.389	14568
909.626	14638
909.862	14522
910.099	14418
910.335	14382
910.572	14255
910.808	14192
911.045	14172
911.281	14140
911.518	14070
911.754	13975
911.99	13841
912.226	13782
912.463	13646
912.699	13534
912.935	13428
913.171	13339
913.407	13187
913.643	13136
913.879	12944
914.114	12760
914.35	12758
914.586	12671
914.822	12523
915.057	12583
915.293	12338
915.529	12282
915.764	12391
916	12277
916.235	12285
916.471	12220
916.706	12080
916.941	12119
917.177	12113
917.412	12045
917.647	12068
917.882	11915
918.117	12035
918.352	11962
918.588	11874
918.823	11839
919.057	11724
919.292	11500
919.527	11513
919.762	11294
919.997	11285
920.232	11112
920.466	11016
920.701	10924
920.935	10894
921.17	10823
921.405	10743
921.639	10706
921.873	10637
922.108	10578
922.342	10577
922.576	10518
922.811	10504
923.045	10412
923.279	10413
923.513	10257
923.747	10308
923.981	10228
924.215	10105
924.449	10073
924.683	9959
924.917	9947
925.151	9847
925.385	9917
925.618	9821
925.852	9803
926.086	9666
926.319	9746
926.553	9728
926.786	9710
927.02	9650
927.253	9721
927.486	9741
927.72	9559
927.953	9631
928.186	9531
928.42	9578
928.653	9429
928.886	9413
929.119	9423
929.352	9321
929.585	9266
929.818	9187
930.051	9117
930.284	9074
930.516	8923
930.749	8865
930.982	8876
931.215	8838
931.447	8736
931.68	8696
931.912	8680
932.145	8674
932.377	8709
932.61	8779
932.842	8590
933.074	8660
933.307	8583
933.539	8670
933.771	8639
934.003	8539
934.236	8561
934.468	8662
934.7	8620
934.932	8528
935.164	8483
935.395	8412
935.627	8414
935.859	8406
936.091	8241
936.323	8356
936.554	8363
936.786	8294
937.017	8213
937.249	8168
937.481	8145
937.712	8118
937.943	8073
938.175	8072
938.406	8046
938.637	8162
938.869	7968
939.1	8044
939.331	7945
939.562	7937
939.793	7870
940.024	7924
940.255	7916
940.486	7763
940.717	7753
940.948	7751
941.179	7741
941.409	7680
941.64	7675
941.871	7688
942.102	7624
942.332	7678
942.563	7733
942.793	7642
943.024	7572
943.254	7583
943.484	7634
943.715	7620
943.945	7560
944.175	7488
944.405	7538
944.636	7532
944.866	7519
945.096	7548
945.326	7426
945.556	7422
945.786	7475
946.016	7357
946.245	7292
946.475	7279
946.705	7166
946.935	7172
947.164	7098
947.394	7046
947.624	7057
947.853	7086
948.083	7016
948.312	6954
948.542	6846
948.771	6792
949	6883
949.23	6830
949.459	6899
949.688	6868
949.917	6841
950.146	6825
950.375	6891
950.604	6779
950.833	6829
951.062	6801
951.291	6748
951.52	6678
951.749	6724
951.978	6681
952.206	6635
952.435	6647
952.664	6646
952.892	6603
953.121	6626
953.349	6603
953.578	6518
953.806	6513
954.035	6410
954.263	6438
954.491	6398
954.719	6379
954.948	6315
955.176	6255
955.404	6192
955.632	6277
955.86	6211
956.088	6139
956.316	6168
956.544	6137
956.772	6051
956.999	5988
957.227	6065
957.455	5902
957.683	5990
957.91	5915
958.138	5825
958.365	5840
958.593	5800
958.82	5728
959.048	5778
959.275	5782
959.502	5742
959.73	5687
959.957	5758
960.184	5729
960.411	5648
960.638	5728
960.865	5615
961.092	5651
961.319	5583
961.546	5656
961.773	5614
962	5640
962.227	5649
962.454	5580
962.68	5562
962.907	5504
963.134	5445
963.36	5470
963.587	5472
963.813	5361
964.04	5382
964.266	5275
964.493	5325
964.719	5251
964.945	5255
965.171	5170
965.398	5177
965.624	5204
965.85	5112
966.076	5077
966.302	5093
966.528	5019
966.754	5085
966.98	5054
967.206	5027
967.431	4863
967.657	4985
967.883	4991
968.109	4977
968.334	4933
968.56	4861
968.785	4892
969.011	4842
969.236	4861
969.462	4830
969.687	4809
969.912	4810
970.138	4828
970.363	4718
970.588	4709
970.813	4712
971.038	4656
971.263	4671
971.488	4659
971.713	4675
971.938	4645
972.163	4559
972.388	4573
972.613	4554
972.838	4530
973.062	4524
973.287	4485
973.512	4412
973.736	4484
973.961	4382
974.185	4380
974.41	4416
974.634	4265
974.858	4265
975.083	4300
975.307	4285
975.531	4194
975.755	4167
975.98	4157
976.204	4092
976.428	4068
976.652	4077
976.876	4027
977.1	4064
977.324	3990
977.547	4017
977.771	4033
977.995	4005
978.219	3946
978.442	4013
978.666	3953
978.89	3934
979.113	3922
979.337	3877
979.56	3877
979.783	3902
980.007	3839
980.23	3828
980.453	3818
980.677	3770
980.9	3794
981.123	3703
981.346	3771
981.569	3742
981.792	3749
982.015	3693
982.238	3631
982.461	3663
982.684	3616
982.907	3570
983.129	3533
983.352	3613
983.575	3525
983.797	3542
984.02	3473
984.242	3477
984.465	3475
984.687	3485
984.91	3470
985.132	3436
985.354	3442
985.577	3384
985.799	3414
986.021	3316
986.243	3257
986.465	3309
986.687	3355
986.909	3388
987.131	3285
987.353	3281
987.575	3301
987.797	3266
988.019	3202
988.241	3249
988.462	3222
988.684	3277
988.906	3233
989.127	3253
989.349	3139
989.57	3189
989.792	3197
990.013	3197
990.234	3232
990.456	3232
990.677	3136
990.898	3089
991.119	3097
991.341	3104
991.562	3079
991.783	3083
992.004	2990
992.225	2955
992.446	3030
992.667	2905
992.887	2944
993.108	2873
993.329	3003
993.55	2951
993.77	2848
993.991	2851
994.212	2842
994.432	2858
994.653	2799
994.873	2825
995.093	2692
995.314	2739
995.534	2808
995.754	2810
995.975	2848
996.195	2686
996.415	2753
996.635	2725
996.855	2727
997.075	2676
997.295	2700
997.515	2665
997.735	2711
997.955	2688
998.174	2690
998.394	2639
998.614	2707
998.834	2656
999.053	2670
999.273	2674
999.492	2714
999.712	2630
999.931	2558
1000.151	2615
1000.37	2571
1000.589	2649
1000.809	2492
1001.028	2623
1001.247	2547
1001.466	2443
1001.685	2553
1001.904	2493
1002.123	2462
1002.342	2454
1002.561	2409
1002.78	2412
1002.999	2472
1003.218	2418
1003.436	2369
1003.655	2440
1003.874	2328
1004.092	2361
1004.311	2400
1004.53	2375
1004.748	2449
1004.966	2350
1005.185	2389
1005.403	2369
1005.622	2349
1005.84	2426
1006.058	2326
1006.276	2352
1006.494	2846
1006.712	2316
1006.931	2400
1007.149	2284
1007.367	2303
1007.584	2358
1007.802	2395
1008.02	2359
1008.238	2441
1008.456	2415
1008.673	2322
1008.891	2444
1009.109	2448
1009.326	2466
1009.544	2582
1009.761	2528
1009.979	2621
1010.196	2697
1010.413	2815
1010.631	2949
1010.848	2976
1011.065	2989
1011.282	2971
1011.5	2894
1011.717	2980
1011.934	2889
1012.151	2960
1012.368	2911
1012.585	2854
1012.801	2912
1013.018	2817
1013.235	2836
1013.452	2848
1013.669	2886
1013.885	2868
1014.102	2908
1014.318	2867
1014.535	2837
1014.751	2864
1014.968	2799
1015.184	2832
1015.401	2754
1015.617	2727
1015.833	2663
1016.049	2680
1016.266	2652
1016.482	2620
1016.698	2489
1016.914	2553
1017.13	2515
1017.346	2503
1017.562	2550
1017.778	2486
1017.993	2460
1018.209	2470
1018.425	2427
1018.641	2439
1018.856	2399
1019.072	2438
1019.288	2403
1019.503	2370
1019.719	2287
1019.934	2310
1020.149	2372
1020.365	2309
1020.58	2237
1020.795	2258
1021.011	2134
1021.226	2126
1021.441	2139
1021.656	2018
1021.871	1934
1022.086	1896
1022.301	1880
1022.516	1862
1022.731	1905
1022.946	1806
1023.16	1784
1023.375	1720
1023.59	1706
1023.804	1622
1024.019	1710
1024.234	1596
1024.448	1566
1024.663	1531
1024.877	1528
1025.092	1524
1025.306	1483
1025.52	1376
1025.734	1473
1025.949	1387
1026.163	1332
1026.377	1260
1026.591	1295
1026.805	1213
1027.019	1195
1027.233	1139
1027.447	1113
1027.661	1206
1027.875	1127
1028.088	1119
1028.302	1033
1028.516	1025
1028.73	998
1028.943	980
1029.157	897
1029.37	863
1029.584	-2
1029.797	-1
1030.011	-1
1030.224	-2
