Data from QEP037381__197__15-56-19-890.txt Node

Date: Fri Dec 16 15:56:19 EST 2022
User: dcclab
Spectrometer: QEP03738
Trigger mode: 4
Integration Time (sec): 1.000000E1
Scans to average: 1
Electric dark correction enabled: true
Nonlinearity correction enabled: false
Boxcar width: 0
XAxis mode: Wavelengths
Number of Pixels in Spectrum: 1044
>>>>>Begin Spectral Data<<<<<
784.041	13
784.3	-1
784.558	-1
784.817	-5
785.075	111592
785.334	19627
785.592	9217
785.851	6417
786.109	4820
786.368	3781
786.626	3004
786.884	2531
787.143	2092
787.401	1752
787.659	1541
787.917	1337
788.175	1226
788.433	1091
788.691	956
788.949	901
789.207	822
789.465	728
789.723	707
789.98	680
790.238	698
790.496	629
790.753	607
791.011	657
791.268	597
791.526	575
791.783	587
792.041	571
792.298	491
792.556	546
792.813	535
793.07	500
793.327	500
793.584	574
793.841	499
794.099	516
794.356	573
794.613	478
794.869	521
795.126	466
795.383	458
795.64	492
795.897	439
796.153	499
796.41	470
796.667	464
796.923	468
797.18	490
797.436	494
797.693	472
797.949	538
798.206	561
798.462	479
798.718	550
798.974	523
799.231	566
799.487	557
799.743	572
799.999	610
800.255	585
800.511	588
800.767	657
801.023	640
801.279	703
801.534	760
801.79	825
802.046	886
802.302	1082
802.557	1272
802.813	1621
803.068	2121
803.324	2971
803.579	4069
803.835	5889
804.09	8094
804.345	10691
804.601	13668
804.856	16638
805.111	19077
805.366	21202
805.621	22722
805.876	23933
806.131	24412
806.386	24987
806.641	25445
806.896	25820
807.151	26393
807.406	26740
807.661	27146
807.915	27768
808.17	28119
808.425	28389
808.679	28715
808.934	29024
809.188	29378
809.443	29591
809.697	29872
809.951	30291
810.206	30451
810.46	30788
810.714	31106
810.968	31254
811.223	31489
811.477	31869
811.731	32167
811.985	32440
812.239	32445
812.493	32640
812.747	32805
813	32764
813.254	32918
813.508	33046
813.762	33229
814.015	33350
814.269	33587
814.522	34045
814.776	34238
815.03	34757
815.283	35329
815.536	35940
815.79	36359
816.043	37013
816.296	37456
816.55	37829
816.803	38220
817.056	38815
817.309	39078
817.562	39443
817.815	39881
818.068	40295
818.321	40692
818.574	41257
818.827	41676
819.079	42142
819.332	42924
819.585	43234
819.838	43933
820.09	44156
820.343	44544
820.595	44713
820.848	45070
821.1	45177
821.353	45223
821.605	45140
821.857	45214
822.11	44944
822.362	44868
822.614	44898
822.866	44746
823.118	44891
823.37	44926
823.622	45106
823.874	45044
824.126	45262
824.378	45413
824.63	45473
824.882	45588
825.134	45525
825.385	45513
825.637	45513
825.888	45294
826.14	45181
826.392	45006
826.643	44875
826.895	44676
827.146	44545
827.397	44304
827.649	44235
827.9	44300
828.151	44343
828.402	44529
828.653	44695
828.905	44568
829.156	44793
829.407	44695
829.658	44686
829.909	44689
830.159	44623
830.41	44334
830.661	44205
830.912	43731
831.162	43487
831.413	43509
831.664	43575
831.914	43491
832.165	43491
832.415	43342
832.666	43539
832.916	43476
833.167	43179
833.417	43343
833.667	43082
833.917	43001
834.168	42914
834.418	42752
834.668	42534
834.918	42355
835.168	42180
835.418	41924
835.668	41991
835.918	41742
836.167	41629
836.417	41625
836.667	41585
836.917	41444
837.166	41231
837.416	41251
837.666	41305
837.915	41177
838.165	41153
838.414	40981
838.663	40807
838.913	40719
839.162	40676
839.411	40695
839.661	40383
839.91	40122
840.159	40148
840.408	40048
840.657	40022
840.906	40051
841.155	40260
841.404	40036
841.653	39900
841.902	39960
842.15	40090
842.399	40068
842.648	39940
842.897	39792
843.145	39562
843.394	39338
843.642	39294
843.891	39056
844.139	38749
844.388	38568
844.636	38373
844.884	38359
845.133	38119
845.381	38165
845.629	38033
845.877	38036
846.125	37947
846.373	37897
846.621	37802
846.869	37606
847.117	37379
847.365	37244
847.613	37138
847.861	36892
848.108	36890
848.356	36763
848.604	36587
848.851	36671
849.099	36734
849.346	36779
849.594	36897
849.841	37000
850.089	36938
850.336	36934
850.583	36936
850.831	36654
851.078	36548
851.325	36337
851.572	36214
851.819	35916
852.066	35434
852.313	35022
852.56	34813
852.807	34576
853.054	34491
853.301	34349
853.548	34276
853.794	34636
854.041	34621
854.288	34772
854.534	35056
854.781	34873
855.028	34720
855.274	34610
855.52	34360
855.767	34152
856.013	34261
856.26	34362
856.506	33794
856.752	33836
856.998	33712
857.244	33885
857.49	33936
857.736	34032
857.982	33962
858.228	33816
858.474	33644
858.72	33471
858.966	33168
859.212	32892
859.458	32442
859.703	32289
859.949	31892
860.195	31599
860.44	31407
860.686	31196
860.931	31118
861.177	31040
861.422	30931
861.667	30861
861.913	30977
862.158	30987
862.403	30957
862.648	30948
862.893	31070
863.138	30972
863.384	30964
863.629	30844
863.873	30872
864.118	30780
864.363	30633
864.608	30451
864.853	30258
865.098	30137
865.342	29950
865.587	29825
865.832	29734
866.076	29689
866.321	29542
866.565	29433
866.81	29268
867.054	29234
867.298	29184
867.543	29136
867.787	29030
868.031	28920
868.275	28845
868.519	28723
868.764	28683
869.008	28544
869.252	28482
869.496	28367
869.739	28262
869.983	28133
870.227	28221
870.471	28123
870.715	28131
870.958	28275
871.202	28229
871.446	28269
871.689	28284
871.933	28076
872.176	28044
872.42	28087
872.663	27942
872.906	27760
873.15	27647
873.393	27522
873.636	27390
873.879	27144
874.122	26921
874.366	26612
874.609	26340
874.852	26165
875.095	26098
875.337	25987
875.58	25688
875.823	25733
876.066	25654
876.309	25612
876.551	25467
876.794	25289
877.037	25389
877.279	25232
877.522	25244
877.764	25141
878.007	25233
878.249	25109
878.491	24993
878.734	25020
878.976	25037
879.218	24915
879.46	24755
879.702	24429
879.945	24303
880.187	24015
880.429	23940
880.671	23771
880.912	23681
881.154	23575
881.396	23529
881.638	23460
881.88	23545
882.121	23437
882.363	23335
882.605	23244
882.846	23243
883.088	23243
883.329	23028
883.571	23074
883.812	23089
884.053	23144
884.295	23504
884.536	23481
884.777	23337
885.018	23223
885.259	23191
885.5	22942
885.742	23322
885.982	23010
886.223	22859
886.464	22717
886.705	22527
886.946	22495
887.187	22136
887.428	22074
887.668	21829
887.909	21547
888.15	21391
888.39	21317
888.631	21148
888.871	20929
889.111	20817
889.352	20619
889.592	20485
889.833	20350
890.073	20264
890.313	20097
890.553	19910
890.793	19796
891.033	19720
891.273	19622
891.513	19573
891.753	19594
891.993	19469
892.233	19492
892.473	19499
892.713	19464
892.952	19448
893.192	19450
893.432	19398
893.671	19446
893.911	19326
894.15	19227
894.39	19018
894.629	18907
894.869	18733
895.108	18671
895.347	18552
895.587	18460
895.826	18462
896.065	18280
896.304	18374
896.543	18315
896.782	18186
897.021	18101
897.26	18107
897.499	18101
897.738	18115
897.977	17806
898.216	17679
898.454	17591
898.693	17392
898.932	17370
899.17	17287
899.409	17213
899.647	17183
899.886	17176
900.124	17145
900.363	16966
900.601	17021
900.839	17025
901.078	17036
901.316	16934
901.554	17030
901.792	17132
902.03	17037
902.268	17002
902.506	17042
902.744	16850
902.982	16841
903.22	16608
903.458	16370
903.695	16275
903.933	16028
904.171	15837
904.409	15582
904.646	15398
904.884	15214
905.121	15074
905.359	14898
905.596	14823
905.833	14603
906.071	14518
906.308	14525
906.545	14439
906.783	14416
907.02	14381
907.257	14344
907.494	14267
907.731	14292
907.968	14189
908.205	14180
908.442	13992
908.679	13985
908.915	13815
909.152	13739
909.389	13516
909.626	13445
909.862	13400
910.099	13319
910.335	13314
910.572	13184
910.808	13186
911.045	13172
911.281	13028
911.518	13021
911.754	12875
911.99	12846
912.226	12735
912.463	12653
912.699	12565
912.935	12391
913.171	12358
913.407	12275
913.643	12195
913.879	12032
914.114	11930
914.35	11843
914.586	11679
914.822	11572
915.057	11590
915.293	11333
915.529	11299
915.764	11352
916	11361
916.235	11299
916.471	11233
916.706	11200
916.941	11192
917.177	11132
917.412	11193
917.647	11157
917.882	11119
918.117	11145
918.352	10989
918.588	11005
918.823	10815
919.057	10777
919.292	10626
919.527	10562
919.762	10452
919.997	10393
920.232	10148
920.466	10192
920.701	9997
920.935	9955
921.17	9905
921.405	9839
921.639	9867
921.873	9783
922.108	9798
922.342	9762
922.576	9662
922.811	9665
923.045	9611
923.279	9560
923.513	9459
923.747	9411
923.981	9350
924.215	9236
924.449	9274
924.683	9159
924.917	9089
925.151	8977
925.385	9066
925.618	9032
925.852	8994
926.086	8905
926.319	8924
926.553	8935
926.786	8885
927.02	8891
927.253	8871
927.486	8867
927.72	8762
927.953	8811
928.186	8757
928.42	8788
928.653	8680
928.886	8651
929.119	8647
929.352	8516
929.585	8585
929.818	8424
930.051	8380
930.284	8299
930.516	8190
930.749	8156
930.982	8200
931.215	8103
931.447	8016
931.68	7978
931.912	7925
932.145	7947
932.377	7992
932.61	8053
932.842	7821
933.074	7907
933.307	7874
933.539	8023
933.771	7957
934.003	7870
934.236	7920
934.468	7933
934.7	7819
934.932	7791
935.164	7739
935.395	7736
935.627	7754
935.859	7699
936.091	7589
936.323	7612
936.554	7631
936.786	7549
937.017	7482
937.249	7508
937.481	7406
937.712	7433
937.943	7421
938.175	7381
938.406	7349
938.637	7463
938.869	7287
939.1	7348
939.331	7343
939.562	7322
939.793	7221
940.024	7269
940.255	7232
940.486	7163
940.717	7085
940.948	7081
941.179	6989
941.409	7028
941.64	7020
941.871	7053
942.102	7053
942.332	6982
942.563	6957
942.793	6997
943.024	6891
943.254	6919
943.484	6983
943.715	6991
943.945	6959
944.175	6918
944.405	6845
944.636	6839
944.866	6835
945.096	6853
945.326	6755
945.556	6771
945.786	6819
946.016	6720
946.245	6671
946.475	6628
946.705	6552
946.935	6523
947.164	6500
947.394	6439
947.624	6426
947.853	6450
948.083	6338
948.312	6349
948.542	6244
948.771	6262
949	6223
949.23	6274
949.459	6237
949.688	6286
949.917	6250
950.146	6248
950.375	6349
950.604	6136
950.833	6232
951.062	6173
951.291	6128
951.52	6064
951.749	6128
951.978	6076
952.206	6005
952.435	5982
952.664	6013
952.892	5999
953.121	5950
953.349	5950
953.578	5919
953.806	5895
954.035	5834
954.263	5807
954.491	5697
954.719	5765
954.948	5706
955.176	5712
955.404	5628
955.632	5636
955.86	5649
956.088	5562
956.316	5594
956.544	5578
956.772	5446
956.999	5482
957.227	5520
957.455	5435
957.683	5423
957.91	5306
958.138	5322
958.365	5270
958.593	5262
958.82	5193
959.048	5274
959.275	5230
959.502	5167
959.73	5157
959.957	5194
960.184	5178
960.411	5132
960.638	5213
960.865	5043
961.092	5143
961.319	5032
961.546	5138
961.773	5124
962	5047
962.227	5073
962.454	5100
962.68	5052
962.907	4960
963.134	4934
963.36	4913
963.587	4948
963.813	4841
964.04	4860
964.266	4769
964.493	4809
964.719	4782
964.945	4724
965.171	4639
965.398	4673
965.624	4678
965.85	4610
966.076	4561
966.302	4654
966.528	4590
966.754	4558
966.98	4550
967.206	4533
967.431	4441
967.657	4540
967.883	4461
968.109	4467
968.334	4441
968.56	4404
968.785	4433
969.011	4362
969.236	4433
969.462	4339
969.687	4341
969.912	4402
970.138	4357
970.363	4231
970.588	4306
970.813	4243
971.038	4219
971.263	4216
971.488	4210
971.713	4263
971.938	4224
972.163	4094
972.388	4112
972.613	4060
972.838	4088
973.062	4066
973.287	4026
973.512	4034
973.736	3998
973.961	3954
974.185	3958
974.41	3947
974.634	3842
974.858	3855
975.083	3885
975.307	3864
975.531	3762
975.755	3735
975.98	3704
976.204	3673
976.428	3668
976.652	3682
976.876	3643
977.1	3673
977.324	3597
977.547	3591
977.771	3616
977.995	3602
978.219	3506
978.442	3670
978.666	3617
978.89	3507
979.113	3565
979.337	3517
979.56	3452
979.783	3565
980.007	3456
980.23	3467
980.453	3417
980.677	3428
980.9	3436
981.123	3364
981.346	3458
981.569	3376
981.792	3414
982.015	3329
982.238	3288
982.461	3307
982.684	3270
982.907	3246
983.129	3204
983.352	3233
983.575	3212
983.797	3209
984.02	3173
984.242	3140
984.465	3119
984.687	3113
984.91	3151
985.132	3121
985.354	3114
985.577	3079
985.799	3013
986.021	2979
986.243	3013
986.465	3013
986.687	3043
986.909	3070
987.131	3023
987.353	2957
987.575	2996
987.797	2934
988.019	2881
988.241	2910
988.462	2869
988.684	2944
988.906	2954
989.127	2965
989.349	2848
989.57	2876
989.792	2866
990.013	2896
990.234	2886
990.456	2937
990.677	2883
990.898	2800
991.119	2790
991.341	2820
991.562	2749
991.783	2780
992.004	2660
992.225	2685
992.446	2735
992.667	2641
992.887	2736
993.108	2587
993.329	2682
993.55	2663
993.77	2607
993.991	2580
994.212	2569
994.432	2571
994.653	2577
994.873	2520
995.093	2436
995.314	2491
995.534	2533
995.754	2568
995.975	2552
996.195	2480
996.415	2514
996.635	2445
996.855	2469
997.075	2429
997.295	2433
997.515	2415
997.735	2461
997.955	2447
998.174	2439
998.394	2410
998.614	2417
998.834	2366
999.053	2407
999.273	2414
999.492	2456
999.712	2375
999.931	2336
1000.151	2371
1000.37	2318
1000.589	2388
1000.809	2314
1001.028	2398
1001.247	2322
1001.466	2210
1001.685	2344
1001.904	2258
1002.123	2254
1002.342	2264
1002.561	2216
1002.78	2253
1002.999	2275
1003.218	2212
1003.436	2176
1003.655	2232
1003.874	2193
1004.092	2152
1004.311	2195
1004.53	2163
1004.748	2233
1004.966	2155
1005.185	2162
1005.403	2184
1005.622	2139
1005.84	2240
1006.058	2100
1006.276	2141
1006.494	2607
1006.712	2130
1006.931	2194
1007.149	2077
1007.367	2092
1007.584	2108
1007.802	2193
1008.02	2107
1008.238	2179
1008.456	2174
1008.673	2045
1008.891	2162
1009.109	2077
1009.326	2123
1009.544	2242
1009.761	2150
1009.979	2229
1010.196	2242
1010.413	2335
1010.631	2375
1010.848	2389
1011.065	2444
1011.282	2368
1011.5	2336
1011.717	2410
1011.934	2366
1012.151	2351
1012.368	2346
1012.585	2299
1012.801	2311
1013.018	2295
1013.235	2240
1013.452	2274
1013.669	2273
1013.885	2291
1014.102	2287
1014.318	2305
1014.535	2212
1014.751	2237
1014.968	2260
1015.184	2270
1015.401	2140
1015.617	2173
1015.833	2141
1016.049	2128
1016.266	2098
1016.482	2092
1016.698	2003
1016.914	2075
1017.13	1985
1017.346	2014
1017.562	2048
1017.778	1976
1017.993	1951
1018.209	2004
1018.425	1996
1018.641	1917
1018.856	1910
1019.072	1967
1019.288	1978
1019.503	1927
1019.719	1881
1019.934	1858
1020.149	1928
1020.365	1861
1020.58	1829
1020.795	1847
1021.011	1769
1021.226	1778
1021.441	1767
1021.656	1691
1021.871	1624
1022.086	1635
1022.301	1604
1022.516	1574
1022.731	1623
1022.946	1532
1023.16	1498
1023.375	1503
1023.59	1437
1023.804	1443
1024.019	1521
1024.234	1378
1024.448	1401
1024.663	1314
1024.877	1327
1025.092	1330
1025.306	1346
1025.52	1228
1025.734	1308
1025.949	1193
1026.163	1185
1026.377	1133
1026.591	1162
1026.805	1087
1027.019	1082
1027.233	1023
1027.447	987
1027.661	1084
1027.875	1036
1028.088	1016
1028.302	949
1028.516	933
1028.73	913
1028.943	895
1029.157	839
1029.37	782
1029.584	0
1029.797	-3
1030.011	-1
1030.224	-2
