Data from QEP037381__71__11-32-45-598.txt Node

Date: Wed Dec 21 11:32:45 EST 2022
User: dcclab
Spectrometer: QEP03738
Trigger mode: 4
Integration Time (sec): 1.000000E1
Scans to average: 1
Electric dark correction enabled: true
Nonlinearity correction enabled: false
Boxcar width: 0
XAxis mode: Wavelengths
Number of Pixels in Spectrum: 1044
>>>>>Begin Spectral Data<<<<<
784.041	13
784.3	2
784.558	0
784.817	-6
785.075	41407
785.334	8378
785.592	4384
785.851	3133
786.109	2393
786.368	1918
786.626	1568
786.884	1343
787.143	1144
787.401	950
787.659	876
787.917	775
788.175	736
788.433	650
788.691	605
788.949	553
789.207	548
789.465	482
789.723	474
789.98	433
790.238	477
790.496	463
790.753	436
791.011	500
791.268	437
791.526	423
791.783	439
792.041	439
792.298	357
792.556	431
792.813	414
793.07	377
793.327	369
793.584	473
793.841	379
794.099	399
794.356	457
794.613	359
794.869	408
795.126	360
795.383	349
795.64	365
795.897	330
796.153	396
796.41	380
796.667	350
796.923	357
797.18	366
797.436	392
797.693	347
797.949	411
798.206	426
798.462	344
798.718	402
798.974	371
799.231	407
799.487	395
799.743	403
799.999	413
800.255	406
800.511	401
800.767	425
801.023	401
801.279	413
801.534	445
801.79	472
802.046	461
802.302	545
802.557	578
802.813	670
803.068	734
803.324	996
803.579	1245
803.835	1630
804.09	2157
804.345	2802
804.601	3469
804.856	4160
805.111	4756
805.366	5275
805.621	5605
805.876	5883
806.131	6055
806.386	6108
806.641	6228
806.896	6335
807.151	6481
807.406	6567
807.661	6655
807.915	6754
808.17	6905
808.425	6948
808.679	7014
808.934	7180
809.188	7141
809.443	7208
809.697	7356
809.951	7358
810.206	7454
810.46	7427
810.714	7574
810.968	7721
811.223	7620
811.477	7730
811.731	7803
811.985	7811
812.239	7774
812.493	7840
812.747	7902
813	7838
813.254	7890
813.508	7988
813.762	8016
814.015	7959
814.269	8056
814.522	8162
814.776	8249
815.03	8261
815.283	8426
815.536	8562
815.79	8706
816.043	8842
816.296	8921
816.55	9024
816.803	9176
817.056	9275
817.309	9345
817.562	9352
817.815	9576
818.068	9518
818.321	9708
818.574	9705
818.827	9889
819.079	9892
819.332	10192
819.585	10312
819.838	10407
820.09	10300
820.343	10499
820.595	10423
820.848	10536
821.1	10607
821.353	10598
821.605	10596
821.857	10547
822.11	10418
822.362	10493
822.614	10386
822.866	10510
823.118	10333
823.37	10497
823.622	10559
823.874	10552
824.126	10584
824.378	10604
824.63	10556
824.882	10599
825.134	10591
825.385	10545
825.637	10460
825.888	10457
826.14	10546
826.392	10413
826.643	10389
826.895	10350
827.146	10326
827.397	10226
827.649	10292
827.9	10183
828.151	10208
828.402	10277
828.653	10231
828.905	10297
829.156	10344
829.407	10347
829.658	10360
829.909	10461
830.159	10443
830.41	10389
830.661	10306
830.912	10176
831.162	10122
831.413	10192
831.664	10176
831.914	10115
832.165	10087
832.415	10114
832.666	10162
832.916	10129
833.167	10154
833.417	10185
833.667	10096
833.917	10037
834.168	10079
834.418	10019
834.668	9976
834.918	9933
835.168	9877
835.418	9781
835.668	9791
835.918	9801
836.167	9795
836.417	9688
836.667	9733
836.917	9790
837.166	9688
837.416	9803
837.666	9718
837.915	9659
838.165	9735
838.414	9683
838.663	9585
838.913	9700
839.162	9629
839.411	9723
839.661	9592
839.91	9598
840.159	9602
840.408	9599
840.657	9638
840.906	9671
841.155	9673
841.404	9590
841.653	9601
841.902	9645
842.15	9726
842.399	9723
842.648	9712
842.897	9619
843.145	9563
843.394	9516
843.642	9361
843.891	9343
844.139	9325
844.388	9214
844.636	9123
844.884	9202
845.133	9105
845.381	9136
845.629	9143
845.877	9120
846.125	9164
846.373	9120
846.621	9090
846.869	9105
847.117	9016
847.365	8940
847.613	8936
847.861	8917
848.108	8926
848.356	8969
848.604	8855
848.851	8924
849.099	8987
849.346	8921
849.594	9051
849.841	9149
850.089	9208
850.336	9265
850.583	9322
850.831	9350
851.078	9207
851.325	9108
851.572	9151
851.819	8984
852.066	8743
852.313	8645
852.56	8511
852.807	8455
853.054	8429
853.301	8567
853.548	8527
853.794	8594
854.041	8570
854.288	8626
854.534	8657
854.781	8710
855.028	8687
855.274	8758
855.52	8746
855.767	8696
856.013	8815
856.26	9054
856.506	8565
856.752	8660
856.998	8560
857.244	8562
857.49	8732
857.736	8718
857.982	8654
858.228	8629
858.474	8495
858.72	8472
858.966	8392
859.212	8288
859.458	8152
859.703	8096
859.949	8019
860.195	8047
860.44	7977
860.686	7966
860.931	7954
861.177	7813
861.422	7863
861.667	7718
861.913	7756
862.158	7721
862.403	7815
862.648	7776
862.893	7838
863.138	7738
863.384	7716
863.629	7750
863.873	7738
864.118	7740
864.363	7617
864.608	7675
864.853	7680
865.098	7597
865.342	7552
865.587	7540
865.832	7562
866.076	7560
866.321	7449
866.565	7522
866.81	7446
867.054	7408
867.298	7496
867.543	7397
867.787	7428
868.031	7366
868.275	7369
868.519	7359
868.764	7365
869.008	7376
869.252	7392
869.496	7372
869.739	7371
869.983	7388
870.227	7402
870.471	7404
870.715	7549
870.958	7490
871.202	7512
871.446	7462
871.689	7475
871.933	7486
872.176	7546
872.42	7509
872.663	7567
872.906	7561
873.15	7529
873.393	7557
873.636	7624
873.879	7495
874.122	7388
874.366	7244
874.609	7198
874.852	7038
875.095	6997
875.337	6919
875.58	6877
875.823	6878
876.066	6926
876.309	6939
876.551	6769
876.794	6743
877.037	6783
877.279	6736
877.522	6764
877.764	6763
878.007	6694
878.249	6651
878.491	6647
878.734	6702
878.976	6681
879.218	6574
879.46	6572
879.702	6502
879.945	6418
880.187	6325
880.429	6320
880.671	6279
880.912	6327
881.154	6282
881.396	6206
881.638	6277
881.88	6215
882.121	6238
882.363	6222
882.605	6287
882.846	6240
883.088	6301
883.329	6358
883.571	6341
883.812	6574
884.053	6815
884.295	6993
884.536	7182
884.777	7057
885.018	6957
885.259	6937
885.5	6810
885.742	6970
885.982	6758
886.223	6733
886.464	6596
886.705	6452
886.946	6372
887.187	6214
887.428	6183
887.668	5994
887.909	5896
888.15	5754
888.39	5830
888.631	5794
888.871	5726
889.111	5655
889.352	5629
889.592	5557
889.833	5534
890.073	5496
890.313	5549
890.553	5354
890.793	5325
891.033	5316
891.273	5289
891.513	5299
891.753	5317
891.993	5285
892.233	5297
892.473	5386
892.713	5351
892.952	5291
893.192	5347
893.432	5299
893.671	5325
893.911	5267
894.15	5302
894.39	5225
894.629	5203
894.869	5177
895.108	5173
895.347	5112
895.587	5168
895.826	5154
896.065	5062
896.304	5164
896.543	5139
896.782	5035
897.021	5153
897.26	5119
897.499	5158
897.738	5168
897.977	5070
898.216	5058
898.454	5063
898.693	4965
898.932	5042
899.17	4965
899.409	5016
899.647	4963
899.886	5009
900.124	4985
900.363	4963
900.601	5048
900.839	5064
901.078	5111
901.316	5114
901.554	5201
901.792	5261
902.03	5219
902.268	5198
902.506	5271
902.744	5147
902.982	5145
903.22	4922
903.458	4898
903.695	4824
903.933	4733
904.171	4624
904.409	4507
904.646	4445
904.884	4390
905.121	4398
905.359	4344
905.596	4266
905.833	4223
906.071	4185
906.308	4232
906.545	4185
906.783	4092
907.02	4118
907.257	4071
907.494	4070
907.731	4093
907.968	4040
908.205	3953
908.442	3993
908.679	4004
908.915	3943
909.152	3966
909.389	3835
909.626	3888
909.862	3812
910.099	3823
910.335	3815
910.572	3738
910.808	3750
911.045	3749
911.281	3703
911.518	3773
911.754	3685
911.99	3695
912.226	3635
912.463	3594
912.699	3582
912.935	3566
913.171	3493
913.407	3467
913.643	3543
913.879	3476
914.114	3445
914.35	3377
914.586	3378
914.822	3318
915.057	3403
915.293	3256
915.529	3270
915.764	3341
916	3290
916.235	3289
916.471	3303
916.706	3202
916.941	3234
917.177	3248
917.412	3261
917.647	3272
917.882	3157
918.117	3231
918.352	3242
918.588	3231
918.823	3195
919.057	3151
919.292	3065
919.527	3205
919.762	3099
919.997	3097
920.232	3010
920.466	3070
920.701	2938
920.935	2992
921.17	2898
921.405	2926
921.639	2996
921.873	2947
922.108	2922
922.342	2932
922.576	2860
922.811	2803
923.045	2896
923.279	2907
923.513	2759
923.747	2847
923.981	2845
924.215	2786
924.449	2781
924.683	2677
924.917	2751
925.151	2795
925.385	2789
925.618	2746
925.852	2759
926.086	2681
926.319	2707
926.553	2678
926.786	2719
927.02	2660
927.253	2756
927.486	2747
927.72	2680
927.953	2724
928.186	2704
928.42	2715
928.653	2686
928.886	2621
929.119	2662
929.352	2629
929.585	2640
929.818	2617
930.051	2609
930.284	2629
930.516	2514
930.749	2499
930.982	2522
931.215	2547
931.447	2482
931.68	2477
931.912	2491
932.145	2462
932.377	2502
932.61	2625
932.842	2426
933.074	2494
933.307	2401
933.539	2522
933.771	2527
934.003	2479
934.236	2537
934.468	2549
934.7	2458
934.932	2509
935.164	2441
935.395	2404
935.627	2414
935.859	2467
936.091	2373
936.323	2447
936.554	2464
936.786	2389
937.017	2367
937.249	2455
937.481	2357
937.712	2416
937.943	2366
938.175	2372
938.406	2355
938.637	2440
938.869	2357
939.1	2371
939.331	2329
939.562	2354
939.793	2329
940.024	2373
940.255	2374
940.486	2291
940.717	2306
940.948	2281
941.179	2267
941.409	2280
941.64	2260
941.871	2283
942.102	2264
942.332	2243
942.563	2303
942.793	2289
943.024	2254
943.254	2267
943.484	2286
943.715	2308
943.945	2280
944.175	2200
944.405	2178
944.636	2202
944.866	2281
945.096	2269
945.326	2187
945.556	2236
945.786	2263
946.016	2185
946.245	2153
946.475	2136
946.705	2180
946.935	2152
947.164	2181
947.394	2123
947.624	2157
947.853	2174
948.083	2120
948.312	2104
948.542	2067
948.771	2024
949	2048
949.23	2050
949.459	2075
949.688	2115
949.917	2085
950.146	2055
950.375	2139
950.604	2042
950.833	2116
951.062	2118
951.291	2021
951.52	2025
951.749	2045
951.978	1983
952.206	1998
952.435	2011
952.664	2027
952.892	2058
953.121	1989
953.349	2053
953.578	2007
953.806	2005
954.035	1946
954.263	1967
954.491	1933
954.719	1989
954.948	1926
955.176	1911
955.404	1881
955.632	1925
955.86	1916
956.088	1939
956.316	1949
956.544	1939
956.772	1898
956.999	1863
957.227	1939
957.455	1826
957.683	1862
957.91	1823
958.138	1819
958.365	1824
958.593	1815
958.82	1773
959.048	1861
959.275	1785
959.502	1791
959.73	1764
959.957	1789
960.184	1825
960.411	1786
960.638	1835
960.865	1770
961.092	1834
961.319	1735
961.546	1825
961.773	1799
962	1757
962.227	1807
962.454	1762
962.68	1756
962.907	1765
963.134	1726
963.36	1747
963.587	1791
963.813	1704
964.04	1759
964.266	1697
964.493	1756
964.719	1748
964.945	1735
965.171	1638
965.398	1684
965.624	1734
965.85	1655
966.076	1660
966.302	1695
966.528	1656
966.754	1691
966.98	1677
967.206	1663
967.431	1615
967.657	1672
967.883	1650
968.109	1659
968.334	1587
968.56	1605
968.785	1626
969.011	1572
969.236	1647
969.462	1554
969.687	1581
969.912	1598
970.138	1679
970.363	1572
970.588	1600
970.813	1591
971.038	1560
971.263	1611
971.488	1567
971.713	1637
971.938	1575
972.163	1491
972.388	1528
972.613	1520
972.838	1509
973.062	1516
973.287	1507
973.512	1441
973.736	1493
973.961	1482
974.185	1493
974.41	1524
974.634	1408
974.858	1428
975.083	1487
975.307	1521
975.531	1431
975.755	1399
975.98	1372
976.204	1368
976.428	1339
976.652	1353
976.876	1350
977.1	1395
977.324	1361
977.547	1386
977.771	1430
977.995	1389
978.219	1324
978.442	1443
978.666	1395
978.89	1359
979.113	1371
979.337	1384
979.56	1337
979.783	1452
980.007	1309
980.23	1369
980.453	1318
980.677	1356
980.9	1340
981.123	1281
981.346	1358
981.569	1341
981.792	1365
982.015	1322
982.238	1292
982.461	1322
982.684	1297
982.907	1257
983.129	1269
983.352	1333
983.575	1299
983.797	1310
984.02	1250
984.242	1256
984.465	1253
984.687	1278
984.91	1288
985.132	1296
985.354	1295
985.577	1290
985.799	1275
986.021	1203
986.243	1234
986.465	1239
986.687	1300
986.909	1313
987.131	1268
987.353	1222
987.575	1275
987.797	1231
988.019	1164
988.241	1240
988.462	1193
988.684	1252
988.906	1277
989.127	1312
989.349	1190
989.57	1244
989.792	1242
990.013	1274
990.234	1277
990.456	1290
990.677	1284
990.898	1214
991.119	1219
991.341	1264
991.562	1192
991.783	1260
992.004	1180
992.225	1181
992.446	1220
992.667	1142
992.887	1187
993.108	1115
993.329	1244
993.55	1203
993.77	1156
993.991	1151
994.212	1204
994.432	1180
994.653	1181
994.873	1199
995.093	1073
995.314	1131
995.534	1193
995.754	1209
995.975	1242
996.195	1137
996.415	1162
996.635	1182
996.855	1179
997.075	1141
997.295	1145
997.515	1162
997.735	1178
997.955	1177
998.174	1157
998.394	1156
998.614	1211
998.834	1143
999.053	1198
999.273	1173
999.492	1231
999.712	1167
999.931	1125
1000.151	1174
1000.37	1137
1000.589	1211
1000.809	1138
1001.028	1256
1001.247	1179
1001.466	1115
1001.685	1226
1001.904	1166
1002.123	1159
1002.342	1163
1002.561	1144
1002.78	1153
1002.999	1212
1003.218	1158
1003.436	1123
1003.655	1188
1003.874	1120
1004.092	1147
1004.311	1181
1004.53	1148
1004.748	1225
1004.966	1168
1005.185	1211
1005.403	1204
1005.622	1185
1005.84	1250
1006.058	1137
1006.276	1186
1006.494	1665
1006.712	1178
1006.931	1270
1007.149	1168
1007.367	1169
1007.584	1230
1007.802	1243
1008.02	1193
1008.238	1295
1008.456	1293
1008.673	1173
1008.891	1288
1009.109	1258
1009.326	1322
1009.544	1414
1009.761	1319
1009.979	1455
1010.196	1463
1010.413	1570
1010.631	1634
1010.848	1664
1011.065	1667
1011.282	1627
1011.5	1559
1011.717	1679
1011.934	1596
1012.151	1642
1012.368	1622
1012.585	1564
1012.801	1647
1013.018	1593
1013.235	1561
1013.452	1599
1013.669	1644
1013.885	1602
1014.102	1648
1014.318	1606
1014.535	1569
1014.751	1634
1014.968	1599
1015.184	1603
1015.401	1524
1015.617	1542
1015.833	1487
1016.049	1514
1016.266	1470
1016.482	1489
1016.698	1428
1016.914	1510
1017.13	1373
1017.346	1394
1017.562	1463
1017.778	1408
1017.993	1369
1018.209	1399
1018.425	1396
1018.641	1379
1018.856	1326
1019.072	1386
1019.288	1409
1019.503	1382
1019.719	1281
1019.934	1331
1020.149	1352
1020.365	1318
1020.58	1267
1020.795	1309
1021.011	1224
1021.226	1188
1021.441	1238
1021.656	1141
1021.871	1084
1022.086	1088
1022.301	1105
1022.516	1070
1022.731	1135
1022.946	1054
1023.16	1020
1023.375	987
1023.59	971
1023.804	946
1024.019	1024
1024.234	873
1024.448	947
1024.663	857
1024.877	872
1025.092	916
1025.306	926
1025.52	811
1025.734	903
1025.949	828
1026.163	791
1026.377	765
1026.591	796
1026.805	719
1027.019	733
1027.233	699
1027.447	648
1027.661	748
1027.875	693
1028.088	694
1028.302	625
1028.516	625
1028.73	620
1028.943	616
1029.157	563
1029.37	541
1029.584	0
1029.797	-4
1030.011	-4
1030.224	-1
