Data from QEP037381__89__10-18-12-732.txt Node

Date: Wed Dec 21 10:18:12 EST 2022
User: dcclab
Spectrometer: QEP03738
Trigger mode: 4
Integration Time (sec): 1.000000E1
Scans to average: 1
Electric dark correction enabled: true
Nonlinearity correction enabled: false
Boxcar width: 0
XAxis mode: Wavelengths
Number of Pixels in Spectrum: 1044
>>>>>Begin Spectral Data<<<<<
784.041	14
784.3	1
784.558	-1
784.817	-6
785.075	82718
785.334	13931
785.592	6379
785.851	4410
786.109	3353
786.368	2615
786.626	2124
786.884	1754
787.143	1472
787.401	1200
787.659	1092
787.917	952
788.175	877
788.433	772
788.691	707
788.949	663
789.207	631
789.465	562
789.723	541
789.98	495
790.238	541
790.496	509
790.753	482
791.011	540
791.268	469
791.526	456
791.783	480
792.041	462
792.298	385
792.556	444
792.813	422
793.07	399
793.327	406
793.584	469
793.841	402
794.099	420
794.356	460
794.613	383
794.869	424
795.126	375
795.383	361
795.64	379
795.897	353
796.153	390
796.41	387
796.667	367
796.923	367
797.18	357
797.436	388
797.693	359
797.949	402
798.206	428
798.462	354
798.718	400
798.974	368
799.231	413
799.487	403
799.743	401
799.999	421
800.255	402
800.511	371
800.767	412
801.023	389
801.279	418
801.534	426
801.79	447
802.046	413
802.302	509
802.557	508
802.813	565
803.068	606
803.324	782
803.579	940
803.835	1206
804.09	1596
804.345	2026
804.601	2547
804.856	3101
805.111	3609
805.366	3932
805.621	4154
805.876	4381
806.131	4444
806.386	4479
806.641	4501
806.896	4667
807.151	4789
807.406	4768
807.661	4867
807.915	4956
808.17	4989
808.425	5032
808.679	5094
808.934	5217
809.188	5199
809.443	5249
809.697	5354
809.951	5358
810.206	5411
810.46	5461
810.714	5509
810.968	5558
811.223	5590
811.477	5694
811.731	5716
811.985	5646
812.239	5621
812.493	5711
812.747	5807
813	5745
813.254	5839
813.508	5871
813.762	5863
814.015	5938
814.269	5897
814.522	6007
814.776	6031
815.03	6122
815.283	6230
815.536	6359
815.79	6473
816.043	6482
816.296	6532
816.55	6622
816.803	6689
817.056	6891
817.309	6892
817.562	6877
817.815	7062
818.068	7047
818.321	7113
818.574	7140
818.827	7327
819.079	7325
819.332	7657
819.585	7606
819.838	7791
820.09	7764
820.343	7843
820.595	7836
820.848	7882
821.1	8033
821.353	7940
821.605	7968
821.857	8001
822.11	7848
822.362	7919
822.614	7877
822.866	7973
823.118	7932
823.37	8048
823.622	7972
823.874	7994
824.126	8071
824.378	8028
824.63	8106
824.882	8195
825.134	8120
825.385	8143
825.637	8092
825.888	7997
826.14	8005
826.392	8021
826.643	7956
826.895	7929
827.146	7971
827.397	7861
827.649	7918
827.9	7856
828.151	7859
828.402	7923
828.653	7864
828.905	7951
829.156	8063
829.407	8001
829.658	8001
829.909	7964
830.159	8011
830.41	7954
830.661	7934
830.912	7851
831.162	7856
831.413	7791
831.664	7920
831.914	7807
832.165	7875
832.415	7798
832.666	7844
832.916	7919
833.167	7832
833.417	7839
833.667	7815
833.917	7776
834.168	7881
834.418	7791
834.668	7781
834.918	7701
835.168	7733
835.418	7627
835.668	7669
835.918	7663
836.167	7668
836.417	7609
836.667	7679
836.917	7662
837.166	7565
837.416	7625
837.666	7652
837.915	7547
838.165	7555
838.414	7485
838.663	7439
838.913	7540
839.162	7401
839.411	7541
839.661	7437
839.91	7425
840.159	7527
840.408	7503
840.657	7507
840.906	7437
841.155	7515
841.404	7479
841.653	7491
841.902	7443
842.15	7466
842.399	7492
842.648	7453
842.897	7440
843.145	7361
843.394	7369
843.642	7311
843.891	7370
844.139	7277
844.388	7233
844.636	7231
844.884	7236
845.133	7198
845.381	7213
845.629	7216
845.877	7191
846.125	7167
846.373	7175
846.621	7138
846.869	7164
847.117	7101
847.365	7086
847.613	7101
847.861	7005
848.108	7091
848.356	7027
848.604	7003
848.851	7043
849.099	7022
849.346	7057
849.594	7154
849.841	7162
850.089	7192
850.336	7137
850.583	7116
850.831	7151
851.078	7160
851.325	7134
851.572	7246
851.819	7190
852.066	6918
852.313	6871
852.56	6749
852.807	6695
853.054	6728
853.301	6766
853.548	6759
853.794	6862
854.041	6839
854.288	6803
854.534	6979
854.781	6936
855.028	6824
855.274	6876
855.52	6775
855.767	6768
856.013	6787
856.26	7020
856.506	6688
856.752	6688
856.998	6676
857.244	6692
857.49	6800
857.736	6747
857.982	6818
858.228	6797
858.474	6722
858.72	6694
858.966	6603
859.212	6595
859.458	6473
859.703	6462
859.949	6330
860.195	6415
860.44	6319
860.686	6265
860.931	6273
861.177	6193
861.422	6322
861.667	6110
861.913	6191
862.158	6226
862.403	6265
862.648	6295
862.893	6371
863.138	6269
863.384	6223
863.629	6300
863.873	6270
864.118	6292
864.363	6218
864.608	6272
864.853	6159
865.098	6182
865.342	6108
865.587	6114
865.832	6117
866.076	6140
866.321	6051
866.565	6077
866.81	5969
867.054	6002
867.298	6015
867.543	5971
867.787	5993
868.031	5940
868.275	5991
868.519	5991
868.764	5941
869.008	5943
869.252	5956
869.496	5929
869.739	5887
869.983	5964
870.227	5948
870.471	5882
870.715	5945
870.958	5987
871.202	5963
871.446	5934
871.689	5960
871.933	5975
872.176	5930
872.42	5955
872.663	5879
872.906	5965
873.15	5894
873.393	5869
873.636	5919
873.879	5853
874.122	5807
874.366	5666
874.609	5682
874.852	5637
875.095	5620
875.337	5521
875.58	5502
875.823	5568
876.066	5532
876.309	5524
876.551	5430
876.794	5438
877.037	5487
877.279	5420
877.522	5494
877.764	5500
878.007	5416
878.249	5491
878.491	5371
878.734	5497
878.976	5412
879.218	5359
879.46	5356
879.702	5330
879.945	5256
880.187	5211
880.429	5212
880.671	5171
880.912	5186
881.154	5133
881.396	5112
881.638	5121
881.88	5142
882.121	5075
882.363	5112
882.605	5128
882.846	5132
883.088	5131
883.329	5050
883.571	5077
883.812	5166
884.053	5221
884.295	5310
884.536	5401
884.777	5354
885.018	5322
885.259	5347
885.5	5271
885.742	5547
885.982	5220
886.223	5132
886.464	5170
886.705	5124
886.946	5103
887.187	4943
887.428	5039
887.668	4883
887.909	4828
888.15	4775
888.39	4821
888.631	4803
888.871	4716
889.111	4733
889.352	4650
889.592	4612
889.833	4584
890.073	4580
890.313	4608
890.553	4478
890.793	4499
891.033	4451
891.273	4464
891.513	4492
891.753	4471
891.993	4456
892.233	4445
892.473	4524
892.713	4458
892.952	4434
893.192	4498
893.432	4444
893.671	4484
893.911	4462
894.15	4435
894.39	4341
894.629	4388
894.869	4379
895.108	4308
895.347	4231
895.587	4277
895.826	4229
896.065	4239
896.304	4283
896.543	4307
896.782	4208
897.021	4213
897.26	4233
897.499	4306
897.738	4291
897.977	4224
898.216	4171
898.454	4094
898.693	4069
898.932	4108
899.17	4062
899.409	4053
899.647	4075
899.886	4045
900.124	4052
900.363	4041
900.601	4053
900.839	4039
901.078	4127
901.316	4052
901.554	4149
901.792	4154
902.03	4072
902.268	4118
902.506	4177
902.744	4072
902.982	4110
903.22	3989
903.458	3973
903.695	3972
903.933	3886
904.171	3817
904.409	3745
904.646	3782
904.884	3688
905.121	3697
905.359	3628
905.596	3599
905.833	3524
906.071	3531
906.308	3569
906.545	3552
906.783	3508
907.02	3518
907.257	3455
907.494	3497
907.731	3511
907.968	3512
908.205	3438
908.442	3413
908.679	3455
908.915	3402
909.152	3432
909.389	3290
909.626	3314
909.862	3279
910.099	3291
910.335	3281
910.572	3206
910.808	3267
911.045	3240
911.281	3244
911.518	3288
911.754	3216
911.99	3212
912.226	3201
912.463	3129
912.699	3122
912.935	3114
913.171	3105
913.407	3050
913.643	3093
913.879	3050
914.114	3013
914.35	2964
914.586	2960
914.822	2919
915.057	3032
915.293	2872
915.529	2864
915.764	2937
916	2938
916.235	2920
916.471	2969
916.706	2802
916.941	2882
917.177	2855
917.412	2927
917.647	2877
917.882	2822
918.117	2873
918.352	2833
918.588	2916
918.823	2827
919.057	2811
919.292	2713
919.527	2794
919.762	2712
919.997	2765
920.232	2647
920.466	2702
920.701	2603
920.935	2656
921.17	2624
921.405	2586
921.639	2653
921.873	2564
922.108	2600
922.342	2637
922.576	2554
922.811	2534
923.045	2607
923.279	2607
923.513	2477
923.747	2624
923.981	2539
924.215	2481
924.449	2507
924.683	2448
924.917	2477
925.151	2452
925.385	2503
925.618	2476
925.852	2414
926.086	2395
926.319	2435
926.553	2439
926.786	2405
927.02	2416
927.253	2446
927.486	2429
927.72	2386
927.953	2431
928.186	2389
928.42	2457
928.653	2350
928.886	2369
929.119	2388
929.352	2368
929.585	2352
929.818	2293
930.051	2333
930.284	2354
930.516	2234
930.749	2252
930.982	2308
931.215	2273
931.447	2189
931.68	2215
931.912	2217
932.145	2205
932.377	2244
932.61	2374
932.842	2183
933.074	2231
933.307	2189
933.539	2275
933.771	2279
934.003	2207
934.236	2272
934.468	2304
934.7	2198
934.932	2269
935.164	2201
935.395	2212
935.627	2203
935.859	2205
936.091	2142
936.323	2194
936.554	2236
936.786	2168
937.017	2104
937.249	2200
937.481	2089
937.712	2197
937.943	2162
938.175	2142
938.406	2146
938.637	2203
938.869	2118
939.1	2157
939.331	2104
939.562	2138
939.793	2108
940.024	2162
940.255	2180
940.486	2108
940.717	2108
940.948	2088
941.179	2045
941.409	2097
941.64	2042
941.871	2091
942.102	2058
942.332	2038
942.563	2121
942.793	2073
943.024	2009
943.254	2075
943.484	2091
943.715	2136
943.945	2059
944.175	2019
944.405	1998
944.636	2014
944.866	2081
945.096	2069
945.326	1986
945.556	2062
945.786	2087
946.016	2030
946.245	1986
946.475	1976
946.705	1975
946.935	2003
947.164	1993
947.394	1946
947.624	1982
947.853	1994
948.083	1975
948.312	1959
948.542	1895
948.771	1866
949	1919
949.23	1894
949.459	1931
949.688	2007
949.917	1894
950.146	1963
950.375	1987
950.604	1888
950.833	1981
951.062	2004
951.291	1939
951.52	1895
951.749	1901
951.978	1872
952.206	1879
952.435	1872
952.664	1908
952.892	1912
953.121	1884
953.349	1923
953.578	1887
953.806	1888
954.035	1805
954.263	1868
954.491	1775
954.719	1863
954.948	1812
955.176	1818
955.404	1762
955.632	1830
955.86	1813
956.088	1804
956.316	1851
956.544	1820
956.772	1781
956.999	1752
957.227	1848
957.455	1742
957.683	1762
957.91	1739
958.138	1718
958.365	1738
958.593	1724
958.82	1681
959.048	1739
959.275	1725
959.502	1707
959.73	1703
959.957	1738
960.184	1780
960.411	1699
960.638	1782
960.865	1720
961.092	1735
961.319	1655
961.546	1748
961.773	1749
962	1698
962.227	1753
962.454	1719
962.68	1686
962.907	1717
963.134	1668
963.36	1699
963.587	1712
963.813	1648
964.04	1676
964.266	1616
964.493	1719
964.719	1670
964.945	1696
965.171	1599
965.398	1637
965.624	1699
965.85	1594
966.076	1588
966.302	1652
966.528	1591
966.754	1648
966.98	1617
967.206	1617
967.431	1554
967.657	1643
967.883	1599
968.109	1619
968.334	1556
968.56	1554
968.785	1575
969.011	1521
969.236	1565
969.462	1504
969.687	1542
969.912	1606
970.138	1619
970.363	1533
970.588	1586
970.813	1517
971.038	1504
971.263	1560
971.488	1537
971.713	1584
971.938	1575
972.163	1474
972.388	1535
972.613	1497
972.838	1508
973.062	1501
973.287	1493
973.512	1428
973.736	1490
973.961	1431
974.185	1440
974.41	1513
974.634	1383
974.858	1420
975.083	1452
975.307	1488
975.531	1421
975.755	1356
975.98	1413
976.204	1325
976.428	1331
976.652	1334
976.876	1332
977.1	1376
977.324	1310
977.547	1404
977.771	1407
977.995	1363
978.219	1297
978.442	1425
978.666	1371
978.89	1329
979.113	1340
979.337	1346
979.56	1315
979.783	1391
980.007	1310
980.23	1346
980.453	1317
980.677	1344
980.9	1342
981.123	1236
981.346	1353
981.569	1312
981.792	1340
982.015	1304
982.238	1278
982.461	1301
982.684	1271
982.907	1274
983.129	1250
983.352	1292
983.575	1270
983.797	1281
984.02	1231
984.242	1252
984.465	1256
984.687	1311
984.91	1307
985.132	1286
985.354	1314
985.577	1278
985.799	1275
986.021	1184
986.243	1221
986.465	1224
986.687	1297
986.909	1323
987.131	1240
987.353	1226
987.575	1254
987.797	1251
988.019	1166
988.241	1225
988.462	1190
988.684	1253
988.906	1280
989.127	1302
989.349	1156
989.57	1213
989.792	1262
990.013	1270
990.234	1252
990.456	1303
990.677	1283
990.898	1214
991.119	1195
991.341	1259
991.562	1164
991.783	1226
992.004	1154
992.225	1144
992.446	1215
992.667	1138
992.887	1209
993.108	1104
993.329	1257
993.55	1202
993.77	1115
993.991	1115
994.212	1178
994.432	1161
994.653	1180
994.873	1150
995.093	1048
995.314	1121
995.534	1179
995.754	1196
995.975	1206
996.195	1120
996.415	1167
996.635	1145
996.855	1147
997.075	1135
997.295	1134
997.515	1125
997.735	1164
997.955	1138
998.174	1128
998.394	1095
998.614	1156
998.834	1122
999.053	1181
999.273	1154
999.492	1196
999.712	1151
999.931	1099
1000.151	1159
1000.37	1133
1000.589	1195
1000.809	1127
1001.028	1223
1001.247	1189
1001.466	1087
1001.685	1215
1001.904	1161
1002.123	1128
1002.342	1149
1002.561	1117
1002.78	1150
1002.999	1202
1003.218	1155
1003.436	1134
1003.655	1180
1003.874	1125
1004.092	1145
1004.311	1198
1004.53	1144
1004.748	1214
1004.966	1150
1005.185	1210
1005.403	1174
1005.622	1146
1005.84	1234
1006.058	1118
1006.276	1148
1006.494	1628
1006.712	1151
1006.931	1212
1007.149	1137
1007.367	1116
1007.584	1172
1007.802	1191
1008.02	1122
1008.238	1235
1008.456	1216
1008.673	1085
1008.891	1190
1009.109	1128
1009.326	1204
1009.544	1266
1009.761	1169
1009.979	1259
1010.196	1231
1010.413	1297
1010.631	1344
1010.848	1368
1011.065	1367
1011.282	1322
1011.5	1256
1011.717	1365
1011.934	1320
1012.151	1362
1012.368	1328
1012.585	1279
1012.801	1329
1013.018	1283
1013.235	1275
1013.452	1268
1013.669	1276
1013.885	1268
1014.102	1294
1014.318	1274
1014.535	1238
1014.751	1270
1014.968	1268
1015.184	1311
1015.401	1194
1015.617	1246
1015.833	1230
1016.049	1226
1016.266	1187
1016.482	1221
1016.698	1147
1016.914	1183
1017.13	1146
1017.346	1146
1017.562	1239
1017.778	1153
1017.993	1142
1018.209	1170
1018.425	1161
1018.641	1128
1018.856	1103
1019.072	1125
1019.288	1170
1019.503	1125
1019.719	1064
1019.934	1051
1020.149	1158
1020.365	1083
1020.58	1073
1020.795	1108
1021.011	1037
1021.226	1029
1021.441	1055
1021.656	982
1021.871	941
1022.086	934
1022.301	919
1022.516	921
1022.731	1042
1022.946	895
1023.16	896
1023.375	863
1023.59	865
1023.804	818
1024.019	931
1024.234	791
1024.448	831
1024.663	788
1024.877	807
1025.092	798
1025.306	818
1025.52	732
1025.734	825
1025.949	734
1026.163	728
1026.377	681
1026.591	722
1026.805	645
1027.019	658
1027.233	617
1027.447	573
1027.661	669
1027.875	634
1028.088	623
1028.302	571
1028.516	546
1028.73	579
1028.943	561
1029.157	526
1029.37	473
1029.584	-3
1029.797	-2
1030.011	-2
1030.224	-1
