Data from QEP037381__129__10-24-52-733.txt Node

Date: Wed Dec 21 10:24:52 EST 2022
User: dcclab
Spectrometer: QEP03738
Trigger mode: 4
Integration Time (sec): 1.000000E1
Scans to average: 1
Electric dark correction enabled: true
Nonlinearity correction enabled: false
Boxcar width: 0
XAxis mode: Wavelengths
Number of Pixels in Spectrum: 1044
>>>>>Begin Spectral Data<<<<<
784.041	15
784.3	-1
784.558	-2
784.817	-4
785.075	79069
785.334	13551
785.592	6294
785.851	4351
786.109	3250
786.368	2546
786.626	2091
786.884	1726
787.143	1474
787.401	1195
787.659	1124
787.917	954
788.175	905
788.433	778
788.691	713
788.949	650
789.207	644
789.465	559
789.723	527
789.98	498
790.238	531
790.496	505
790.753	483
791.011	534
791.268	459
791.526	461
791.783	471
792.041	467
792.298	370
792.556	444
792.813	425
793.07	405
793.327	396
793.584	472
793.841	403
794.099	413
794.356	466
794.613	381
794.869	400
795.126	380
795.383	344
795.64	385
795.897	329
796.153	391
796.41	376
796.667	361
796.923	366
797.18	359
797.436	386
797.693	355
797.949	391
798.206	413
798.462	328
798.718	385
798.974	370
799.231	403
799.487	390
799.743	397
799.999	413
800.255	397
800.511	375
800.767	395
801.023	375
801.279	405
801.534	393
801.79	424
802.046	400
802.302	462
802.557	450
802.813	510
803.068	502
803.324	631
803.579	727
803.835	889
804.09	1163
804.345	1388
804.601	1668
804.856	2037
805.111	2316
805.366	2497
805.621	2654
805.876	2784
806.131	2789
806.386	2785
806.641	2819
806.896	2900
807.151	3015
807.406	3003
807.661	3024
807.915	3093
808.17	3119
808.425	3155
808.679	3135
808.934	3263
809.188	3266
809.443	3270
809.697	3344
809.951	3287
810.206	3332
810.46	3385
810.714	3432
810.968	3492
811.223	3458
811.477	3482
811.731	3540
811.985	3485
812.239	3451
812.493	3565
812.747	3583
813	3523
813.254	3608
813.508	3547
813.762	3619
814.015	3653
814.269	3676
814.522	3688
814.776	3718
815.03	3784
815.283	3846
815.536	3912
815.79	3923
816.043	4001
816.296	4030
816.55	4052
816.803	4137
817.056	4259
817.309	4185
817.562	4242
817.815	4326
818.068	4293
818.321	4315
818.574	4363
818.827	4445
819.079	4498
819.332	4691
819.585	4648
819.838	4804
820.09	4706
820.343	4779
820.595	4759
820.848	4836
821.1	4845
821.353	4814
821.605	4818
821.857	4919
822.11	4815
822.362	4839
822.614	4753
822.866	4891
823.118	4815
823.37	4964
823.622	4925
823.874	4945
824.126	5011
824.378	4963
824.63	5016
824.882	5053
825.134	4997
825.385	4970
825.637	4955
825.888	4893
826.14	4919
826.392	4831
826.643	4865
826.895	4884
827.146	4777
827.397	4787
827.649	4821
827.9	4822
828.151	4714
828.402	4777
828.653	4810
828.905	4845
829.156	4839
829.407	4779
829.658	4828
829.909	4867
830.159	4872
830.41	4831
830.661	4833
830.912	4754
831.162	4751
831.413	4731
831.664	4800
831.914	4779
832.165	4782
832.415	4805
832.666	4797
832.916	4823
833.167	4791
833.417	4889
833.667	4788
833.917	4767
834.168	4841
834.418	4820
834.668	4803
834.918	4786
835.168	4788
835.418	4698
835.668	4720
835.918	4766
836.167	4731
836.417	4701
836.667	4709
836.917	4708
837.166	4681
837.416	4657
837.666	4660
837.915	4635
838.165	4632
838.414	4601
838.663	4512
838.913	4590
839.162	4569
839.411	4656
839.661	4531
839.91	4582
840.159	4582
840.408	4575
840.657	4584
840.906	4609
841.155	4629
841.404	4555
841.653	4570
841.902	4516
842.15	4603
842.399	4635
842.648	4594
842.897	4628
843.145	4519
843.394	4477
843.642	4491
843.891	4523
844.139	4469
844.388	4400
844.636	4378
844.884	4443
845.133	4367
845.381	4395
845.629	4438
845.877	4405
846.125	4377
846.373	4389
846.621	4370
846.869	4361
847.117	4398
847.365	4325
847.613	4333
847.861	4297
848.108	4401
848.356	4321
848.604	4261
848.851	4356
849.099	4362
849.346	4323
849.594	4429
849.841	4377
850.089	4369
850.336	4368
850.583	4393
850.831	4461
851.078	4411
851.325	4446
851.572	4545
851.819	4500
852.066	4331
852.313	4226
852.56	4122
852.807	4068
853.054	4130
853.301	4155
853.548	4207
853.794	4309
854.041	4226
854.288	4215
854.534	4343
854.781	4222
855.028	4240
855.274	4256
855.52	4230
855.767	4188
856.013	4225
856.26	4478
856.506	4131
856.752	4160
856.998	4131
857.244	4116
857.49	4212
857.736	4199
857.982	4214
858.228	4181
858.474	4119
858.72	4105
858.966	4083
859.212	4046
859.458	3992
859.703	3972
859.949	3851
860.195	3959
860.44	3890
860.686	3855
860.931	3909
861.177	3826
861.422	3884
861.667	3840
861.913	3787
862.158	3838
862.403	3892
862.648	3906
862.893	3898
863.138	3902
863.384	3840
863.629	3869
863.873	3876
864.118	3852
864.363	3750
864.608	3825
864.853	3883
865.098	3770
865.342	3804
865.587	3820
865.832	3850
866.076	3719
866.321	3776
866.565	3771
866.81	3670
867.054	3701
867.298	3679
867.543	3679
867.787	3717
868.031	3696
868.275	3709
868.519	3691
868.764	3680
869.008	3683
869.252	3745
869.496	3663
869.739	3675
869.983	3735
870.227	3685
870.471	3648
870.715	3708
870.958	3706
871.202	3694
871.446	3680
871.689	3672
871.933	3692
872.176	3738
872.42	3723
872.663	3681
872.906	3721
873.15	3689
873.393	3633
873.636	3705
873.879	3659
874.122	3641
874.366	3578
874.609	3533
874.852	3537
875.095	3522
875.337	3500
875.58	3432
875.823	3492
876.066	3494
876.309	3481
876.551	3394
876.794	3364
877.037	3398
877.279	3370
877.522	3398
877.764	3411
878.007	3375
878.249	3397
878.491	3362
878.734	3425
878.976	3375
879.218	3330
879.46	3406
879.702	3315
879.945	3286
880.187	3233
880.429	3259
880.671	3207
880.912	3224
881.154	3187
881.396	3132
881.638	3196
881.88	3175
882.121	3139
882.363	3139
882.605	3219
882.846	3203
883.088	3192
883.329	3153
883.571	3152
883.812	3158
884.053	3253
884.295	3324
884.536	3464
884.777	3418
885.018	3372
885.259	3396
885.5	3330
885.742	3608
885.982	3345
886.223	3239
886.464	3239
886.705	3171
886.946	3211
887.187	3087
887.428	3137
887.668	3065
887.909	2977
888.15	2951
888.39	2991
888.631	3029
888.871	2947
889.111	2940
889.352	2901
889.592	2836
889.833	2842
890.073	2831
890.313	2915
890.553	2785
890.793	2789
891.033	2784
891.273	2757
891.513	2823
891.753	2825
891.993	2771
892.233	2763
892.473	2821
892.713	2777
892.952	2775
893.192	2804
893.432	2762
893.671	2804
893.911	2796
894.15	2782
894.39	2683
894.629	2689
894.869	2717
895.108	2682
895.347	2690
895.587	2693
895.826	2633
896.065	2658
896.304	2685
896.543	2694
896.782	2594
897.021	2666
897.26	2644
897.499	2707
897.738	2697
897.977	2663
898.216	2611
898.454	2570
898.693	2580
898.932	2575
899.17	2560
899.409	2559
899.647	2526
899.886	2473
900.124	2525
900.363	2538
900.601	2579
900.839	2543
901.078	2558
901.316	2574
901.554	2620
901.792	2621
902.03	2590
902.268	2618
902.506	2649
902.744	2617
902.982	2628
903.22	2516
903.458	2519
903.695	2495
903.933	2425
904.171	2388
904.409	2352
904.646	2403
904.884	2310
905.121	2346
905.359	2304
905.596	2294
905.833	2211
906.071	2229
906.308	2279
906.545	2255
906.783	2178
907.02	2222
907.257	2160
907.494	2159
907.731	2210
907.968	2256
908.205	2185
908.442	2175
908.679	2177
908.915	2128
909.152	2150
909.389	2083
909.626	2113
909.862	2064
910.099	2081
910.335	2108
910.572	2024
910.808	2063
911.045	2052
911.281	2037
911.518	2121
911.754	2037
911.99	2067
912.226	2038
912.463	1963
912.699	1988
912.935	2001
913.171	1959
913.407	1954
913.643	1994
913.879	1944
914.114	1915
914.35	1897
914.586	1885
914.822	1883
915.057	1965
915.293	1839
915.529	1850
915.764	1891
916	1905
916.235	1873
916.471	1876
916.706	1789
916.941	1845
917.177	1845
917.412	1874
917.647	1864
917.882	1811
918.117	1876
918.352	1795
918.588	1890
918.823	1810
919.057	1780
919.292	1731
919.527	1827
919.762	1778
919.997	1811
920.232	1756
920.466	1764
920.701	1680
920.935	1708
921.17	1669
921.405	1644
921.639	1743
921.873	1685
922.108	1702
922.342	1708
922.576	1633
922.811	1652
923.045	1681
923.279	1730
923.513	1606
923.747	1661
923.981	1673
924.215	1627
924.449	1623
924.683	1569
924.917	1598
925.151	1582
925.385	1625
925.618	1609
925.852	1612
926.086	1551
926.319	1595
926.553	1581
926.786	1586
927.02	1576
927.253	1625
927.486	1600
927.72	1528
927.953	1605
928.186	1572
928.42	1597
928.653	1530
928.886	1525
929.119	1605
929.352	1565
929.585	1532
929.818	1495
930.051	1527
930.284	1532
930.516	1483
930.749	1475
930.982	1535
931.215	1519
931.447	1428
931.68	1472
931.912	1458
932.145	1461
932.377	1485
932.61	1608
932.842	1403
933.074	1472
933.307	1452
933.539	1530
933.771	1518
934.003	1454
934.236	1538
934.468	1553
934.7	1469
934.932	1512
935.164	1437
935.395	1445
935.627	1448
935.859	1481
936.091	1420
936.323	1470
936.554	1497
936.786	1453
937.017	1392
937.249	1458
937.481	1355
937.712	1461
937.943	1420
938.175	1393
938.406	1389
938.637	1454
938.869	1379
939.1	1421
939.331	1409
939.562	1438
939.793	1413
940.024	1430
940.255	1446
940.486	1403
940.717	1407
940.948	1390
941.179	1366
941.409	1378
941.64	1379
941.871	1398
942.102	1350
942.332	1357
942.563	1409
942.793	1401
943.024	1343
943.254	1365
943.484	1421
943.715	1424
943.945	1400
944.175	1326
944.405	1328
944.636	1341
944.866	1342
945.096	1387
945.326	1312
945.556	1407
945.786	1405
946.016	1353
946.245	1302
946.475	1340
946.705	1310
946.935	1338
947.164	1321
947.394	1313
947.624	1320
947.853	1354
948.083	1321
948.312	1308
948.542	1275
948.771	1247
949	1264
949.23	1283
949.459	1283
949.688	1361
949.917	1292
950.146	1310
950.375	1381
950.604	1258
950.833	1329
951.062	1336
951.291	1287
951.52	1259
951.749	1294
951.978	1248
952.206	1255
952.435	1242
952.664	1295
952.892	1275
953.121	1291
953.349	1312
953.578	1314
953.806	1262
954.035	1212
954.263	1260
954.491	1224
954.719	1282
954.948	1232
955.176	1229
955.404	1185
955.632	1261
955.86	1255
956.088	1249
956.316	1258
956.544	1290
956.772	1238
956.999	1196
957.227	1297
957.455	1210
957.683	1221
957.91	1208
958.138	1181
958.365	1198
958.593	1179
958.82	1148
959.048	1235
959.275	1193
959.502	1193
959.73	1173
959.957	1207
960.184	1257
960.411	1222
960.638	1267
960.865	1197
961.092	1217
961.319	1140
961.546	1199
961.773	1203
962	1195
962.227	1232
962.454	1184
962.68	1184
962.907	1199
963.134	1159
963.36	1182
963.587	1212
963.813	1149
964.04	1183
964.266	1133
964.493	1217
964.719	1186
964.945	1182
965.171	1107
965.398	1150
965.624	1190
965.85	1121
966.076	1123
966.302	1173
966.528	1130
966.754	1166
966.98	1165
967.206	1158
967.431	1094
967.657	1169
967.883	1174
968.109	1144
968.334	1095
968.56	1098
968.785	1109
969.011	1114
969.236	1129
969.462	1104
969.687	1114
969.912	1153
970.138	1163
970.363	1088
970.588	1096
970.813	1100
971.038	1062
971.263	1103
971.488	1124
971.713	1153
971.938	1128
972.163	1048
972.388	1082
972.613	1068
972.838	1072
973.062	1063
973.287	1075
973.512	1012
973.736	1066
973.961	1057
974.185	1025
974.41	1053
974.634	1005
974.858	1022
975.083	1050
975.307	1072
975.531	1027
975.755	970
975.98	1001
976.204	934
976.428	961
976.652	950
976.876	929
977.1	1005
977.324	950
977.547	1007
977.771	1003
977.995	987
978.219	929
978.442	1055
978.666	988
978.89	981
979.113	996
979.337	997
979.56	926
979.783	1039
980.007	949
980.23	979
980.453	946
980.677	997
980.9	983
981.123	887
981.346	990
981.569	965
981.792	1013
982.015	949
982.238	922
982.461	966
982.684	937
982.907	923
983.129	915
983.352	985
983.575	951
983.797	960
984.02	909
984.242	911
984.465	935
984.687	955
984.91	990
985.132	971
985.354	981
985.577	953
985.799	924
986.021	872
986.243	912
986.465	928
986.687	971
986.909	1001
987.131	945
987.353	925
987.575	961
987.797	908
988.019	868
988.241	940
988.462	902
988.684	951
988.906	981
989.127	995
989.349	883
989.57	926
989.792	967
990.013	978
990.234	990
990.456	1007
990.677	974
990.898	945
991.119	934
991.341	957
991.562	903
991.783	950
992.004	894
992.225	842
992.446	930
992.667	859
992.887	927
993.108	854
993.329	974
993.55	910
993.77	846
993.991	876
994.212	920
994.432	892
994.653	919
994.873	894
995.093	810
995.314	883
995.534	917
995.754	956
995.975	982
996.195	876
996.415	935
996.635	902
996.855	922
997.075	894
997.295	883
997.515	868
997.735	927
997.955	884
998.174	872
998.394	864
998.614	921
998.834	849
999.053	940
999.273	906
999.492	970
999.712	907
999.931	884
1000.151	927
1000.37	922
1000.589	962
1000.809	881
1001.028	1025
1001.247	932
1001.466	845
1001.685	1003
1001.904	952
1002.123	929
1002.342	951
1002.561	911
1002.78	942
1002.999	1003
1003.218	963
1003.436	914
1003.655	993
1003.874	908
1004.092	939
1004.311	989
1004.53	948
1004.748	1006
1004.966	964
1005.185	1001
1005.403	990
1005.622	990
1005.84	1042
1006.058	947
1006.276	962
1006.494	1451
1006.712	990
1006.931	1039
1007.149	927
1007.367	926
1007.584	991
1007.802	1000
1008.02	965
1008.238	1057
1008.456	1038
1008.673	902
1008.891	1033
1009.109	949
1009.326	1010
1009.544	1088
1009.761	951
1009.979	1048
1010.196	1043
1010.413	1080
1010.631	1146
1010.848	1133
1011.065	1171
1011.282	1094
1011.5	1046
1011.717	1147
1011.934	1106
1012.151	1128
1012.368	1108
1012.585	1053
1012.801	1114
1013.018	1098
1013.235	1037
1013.452	1063
1013.669	1077
1013.885	1047
1014.102	1081
1014.318	1018
1014.535	1017
1014.751	1042
1014.968	1052
1015.184	1077
1015.401	997
1015.617	1045
1015.833	988
1016.049	1002
1016.266	988
1016.482	1015
1016.698	957
1016.914	994
1017.13	945
1017.346	962
1017.562	1030
1017.778	941
1017.993	949
1018.209	983
1018.425	966
1018.641	933
1018.856	904
1019.072	939
1019.288	996
1019.503	934
1019.719	853
1019.934	874
1020.149	949
1020.365	903
1020.58	872
1020.795	915
1021.011	883
1021.226	836
1021.441	883
1021.656	825
1021.871	758
1022.086	794
1022.301	795
1022.516	782
1022.731	832
1022.946	770
1023.16	738
1023.375	712
1023.59	721
1023.804	693
1024.019	800
1024.234	679
1024.448	717
1024.663	642
1024.877	666
1025.092	693
1025.306	699
1025.52	601
1025.734	697
1025.949	639
1026.163	624
1026.377	569
1026.591	624
1026.805	569
1027.019	559
1027.233	526
1027.447	472
1027.661	599
1027.875	542
1028.088	545
1028.302	466
1028.516	478
1028.73	482
1028.943	490
1029.157	440
1029.37	415
1029.584	-2
1029.797	-2
1030.011	-2
1030.224	-2
