Data from QEP037381__131__10-25-12-733.txt Node

Date: Wed Dec 21 10:25:12 EST 2022
User: dcclab
Spectrometer: QEP03738
Trigger mode: 4
Integration Time (sec): 1.000000E1
Scans to average: 1
Electric dark correction enabled: true
Nonlinearity correction enabled: false
Boxcar width: 0
XAxis mode: Wavelengths
Number of Pixels in Spectrum: 1044
>>>>>Begin Spectral Data<<<<<
784.041	16
784.3	1
784.558	-2
784.817	-6
785.075	79934
785.334	13608
785.592	6349
785.851	4373
786.109	3307
786.368	2581
786.626	2069
786.884	1751
787.143	1459
787.401	1196
787.659	1095
787.917	936
788.175	863
788.433	764
788.691	696
788.949	645
789.207	628
789.465	546
789.723	537
789.98	487
790.238	534
790.496	497
790.753	471
791.011	530
791.268	478
791.526	456
791.783	464
792.041	456
792.298	386
792.556	438
792.813	413
793.07	407
793.327	392
793.584	481
793.841	383
794.099	407
794.356	481
794.613	378
794.869	414
795.126	369
795.383	348
795.64	372
795.897	328
796.153	375
796.41	379
796.667	364
796.923	356
797.18	351
797.436	397
797.693	343
797.949	404
798.206	410
798.462	328
798.718	390
798.974	363
799.231	394
799.487	381
799.743	379
799.999	413
800.255	384
800.511	372
800.767	388
801.023	374
801.279	387
801.534	397
801.79	406
802.046	391
802.302	462
802.557	453
802.813	506
803.068	495
803.324	604
803.579	683
803.835	851
804.09	1071
804.345	1278
804.601	1540
804.856	1849
805.111	2131
805.366	2251
805.621	2370
805.876	2443
806.131	2497
806.386	2511
806.641	2545
806.896	2599
807.151	2689
807.406	2643
807.661	2708
807.915	2744
808.17	2812
808.425	2847
808.679	2799
808.934	2927
809.188	2893
809.443	2929
809.697	2993
809.951	2983
810.206	2993
810.46	3046
810.714	3093
810.968	3102
811.223	3028
811.477	3088
811.731	3171
811.985	3077
812.239	3070
812.493	3154
812.747	3158
813	3130
813.254	3169
813.508	3212
813.762	3188
814.015	3221
814.269	3264
814.522	3299
814.776	3308
815.03	3380
815.283	3378
815.536	3478
815.79	3506
816.043	3551
816.296	3574
816.55	3611
816.803	3679
817.056	3795
817.309	3767
817.562	3771
817.815	3834
818.068	3784
818.321	3820
818.574	3869
818.827	3993
819.079	3954
819.332	4169
819.585	4149
819.838	4203
820.09	4189
820.343	4243
820.595	4254
820.848	4275
821.1	4340
821.353	4277
821.605	4297
821.857	4362
822.11	4246
822.362	4200
822.614	4235
822.866	4280
823.118	4266
823.37	4358
823.622	4360
823.874	4361
824.126	4412
824.378	4370
824.63	4438
824.882	4453
825.134	4409
825.385	4428
825.637	4325
825.888	4344
826.14	4307
826.392	4298
826.643	4235
826.895	4305
827.146	4204
827.397	4192
827.649	4239
827.9	4210
828.151	4212
828.402	4162
828.653	4256
828.905	4272
829.156	4350
829.407	4196
829.658	4235
829.909	4259
830.159	4289
830.41	4242
830.661	4213
830.912	4150
831.162	4214
831.413	4142
831.664	4214
831.914	4216
832.165	4237
832.415	4220
832.666	4278
832.916	4183
833.167	4173
833.417	4228
833.667	4239
833.917	4226
834.168	4270
834.418	4226
834.668	4241
834.918	4141
835.168	4201
835.418	4098
835.668	4164
835.918	4189
836.167	4165
836.417	4081
836.667	4166
836.917	4129
837.166	4079
837.416	4175
837.666	4120
837.915	4063
838.165	4094
838.414	3973
838.663	3982
838.913	4012
839.162	3965
839.411	4064
839.661	4027
839.91	4014
840.159	4056
840.408	4013
840.657	4048
840.906	4050
841.155	4077
841.404	4015
841.653	4014
841.902	4020
842.15	4019
842.399	4060
842.648	4052
842.897	4025
843.145	3941
843.394	3907
843.642	3924
843.891	3909
844.139	3914
844.388	3894
844.636	3829
844.884	3868
845.133	3881
845.381	3837
845.629	3899
845.877	3842
846.125	3849
846.373	3842
846.621	3858
846.869	3908
847.117	3814
847.365	3819
847.613	3799
847.861	3819
848.108	3826
848.356	3797
848.604	3787
848.851	3782
849.099	3793
849.346	3800
849.594	3837
849.841	3874
850.089	3844
850.336	3847
850.583	3920
850.831	3881
851.078	3928
851.325	3980
851.572	4077
851.819	3988
852.066	3814
852.313	3712
852.56	3590
852.807	3566
853.054	3618
853.301	3653
853.548	3694
853.794	3773
854.041	3751
854.288	3712
854.534	3845
854.781	3699
855.028	3738
855.274	3806
855.52	3680
855.767	3678
856.013	3687
856.26	3934
856.506	3665
856.752	3673
856.998	3626
857.244	3610
857.49	3647
857.736	3681
857.982	3746
858.228	3677
858.474	3584
858.72	3636
858.966	3590
859.212	3568
859.458	3528
859.703	3465
859.949	3403
860.195	3438
860.44	3442
860.686	3390
860.931	3467
861.177	3322
861.422	3380
861.667	3323
861.913	3349
862.158	3399
862.403	3423
862.648	3426
862.893	3432
863.138	3386
863.384	3349
863.629	3417
863.873	3323
864.118	3375
864.363	3277
864.608	3373
864.853	3402
865.098	3337
865.342	3350
865.587	3331
865.832	3327
866.076	3375
866.321	3283
866.565	3297
866.81	3221
867.054	3259
867.298	3277
867.543	3221
867.787	3280
868.031	3246
868.275	3240
868.519	3226
868.764	3265
869.008	3219
869.252	3279
869.496	3208
869.739	3261
869.983	3227
870.227	3240
870.471	3215
870.715	3262
870.958	3253
871.202	3255
871.446	3229
871.689	3218
871.933	3249
872.176	3244
872.42	3243
872.663	3221
872.906	3252
873.15	3195
873.393	3173
873.636	3267
873.879	3184
874.122	3190
874.366	3141
874.609	3163
874.852	3075
875.095	3100
875.337	3065
875.58	2978
875.823	3032
876.066	3068
876.309	3062
876.551	2972
876.794	2996
877.037	3016
877.279	2958
877.522	2933
877.764	2961
878.007	2939
878.249	2945
878.491	2960
878.734	3007
878.976	2980
879.218	2890
879.46	2945
879.702	2916
879.945	2896
880.187	2801
880.429	2851
880.671	2859
880.912	2865
881.154	2815
881.396	2730
881.638	2827
881.88	2789
882.121	2749
882.363	2797
882.605	2795
882.846	2794
883.088	2816
883.329	2785
883.571	2739
883.812	2799
884.053	2926
884.295	2943
884.536	3064
884.777	3008
885.018	2986
885.259	3001
885.5	2946
885.742	3198
885.982	2959
886.223	2850
886.464	2838
886.705	2741
886.946	2800
887.187	2675
887.428	2773
887.668	2663
887.909	2601
888.15	2605
888.39	2625
888.631	2653
888.871	2581
889.111	2576
889.352	2563
889.592	2510
889.833	2453
890.073	2474
890.313	2534
890.553	2428
890.793	2444
891.033	2401
891.273	2376
891.513	2458
891.753	2478
891.993	2404
892.233	2462
892.473	2474
892.713	2455
892.952	2428
893.192	2428
893.432	2447
893.671	2479
893.911	2450
894.15	2430
894.39	2368
894.629	2365
894.869	2400
895.108	2363
895.347	2321
895.587	2395
895.826	2336
896.065	2323
896.304	2354
896.543	2378
896.782	2299
897.021	2334
897.26	2361
897.499	2405
897.738	2418
897.977	2365
898.216	2315
898.454	2288
898.693	2239
898.932	2285
899.17	2248
899.409	2248
899.647	2257
899.886	2203
900.124	2223
900.363	2207
900.601	2238
900.839	2242
901.078	2281
901.316	2254
901.554	2284
901.792	2321
902.03	2263
902.268	2277
902.506	2342
902.744	2254
902.982	2289
903.22	2214
903.458	2181
903.695	2220
903.933	2179
904.171	2083
904.409	2072
904.646	2089
904.884	2052
905.121	2069
905.359	2031
905.596	2039
905.833	1964
906.071	1954
906.308	2037
906.545	1987
906.783	1932
907.02	1944
907.257	1915
907.494	1960
907.731	1945
907.968	1946
908.205	1901
908.442	1898
908.679	1907
908.915	1890
909.152	1913
909.389	1801
909.626	1864
909.862	1850
910.099	1856
910.335	1854
910.572	1778
910.808	1845
911.045	1778
911.281	1806
911.518	1843
911.754	1811
911.99	1813
912.226	1796
912.463	1727
912.699	1735
912.935	1750
913.171	1728
913.407	1707
913.643	1744
913.879	1708
914.114	1690
914.35	1665
914.586	1678
914.822	1635
915.057	1710
915.293	1618
915.529	1621
915.764	1667
916	1649
916.235	1669
916.471	1637
916.706	1589
916.941	1610
917.177	1609
917.412	1656
917.647	1634
917.882	1609
918.117	1654
918.352	1623
918.588	1662
918.823	1598
919.057	1597
919.292	1472
919.527	1616
919.762	1531
919.997	1596
920.232	1532
920.466	1560
920.701	1471
920.935	1511
921.17	1492
921.405	1442
921.639	1516
921.873	1478
922.108	1504
922.342	1498
922.576	1459
922.811	1434
923.045	1484
923.279	1519
923.513	1415
923.747	1487
923.981	1474
924.215	1430
924.449	1404
924.683	1374
924.917	1406
925.151	1406
925.385	1485
925.618	1412
925.852	1431
926.086	1363
926.319	1428
926.553	1416
926.786	1419
927.02	1383
927.253	1436
927.486	1435
927.72	1360
927.953	1418
928.186	1371
928.42	1430
928.653	1343
928.886	1350
929.119	1392
929.352	1373
929.585	1372
929.818	1348
930.051	1386
930.284	1376
930.516	1284
930.749	1319
930.982	1383
931.215	1334
931.447	1290
931.68	1315
931.912	1308
932.145	1278
932.377	1294
932.61	1437
932.842	1231
933.074	1321
933.307	1260
933.539	1351
933.771	1352
934.003	1304
934.236	1384
934.468	1389
934.7	1285
934.932	1350
935.164	1294
935.395	1294
935.627	1279
935.859	1303
936.091	1244
936.323	1317
936.554	1328
936.786	1276
937.017	1238
937.249	1283
937.481	1220
937.712	1298
937.943	1273
938.175	1223
938.406	1247
938.637	1320
938.869	1207
939.1	1284
939.331	1250
939.562	1276
939.793	1260
940.024	1292
940.255	1309
940.486	1251
940.717	1259
940.948	1240
941.179	1196
941.409	1230
941.64	1237
941.871	1249
942.102	1223
942.332	1231
942.563	1261
942.793	1232
943.024	1198
943.254	1216
943.484	1272
943.715	1269
943.945	1238
944.175	1197
944.405	1150
944.636	1189
944.866	1233
945.096	1229
945.326	1160
945.556	1242
945.786	1245
946.016	1197
946.245	1136
946.475	1199
946.705	1197
946.935	1180
947.164	1191
947.394	1137
947.624	1171
947.853	1227
948.083	1174
948.312	1157
948.542	1133
948.771	1105
949	1122
949.23	1129
949.459	1148
949.688	1225
949.917	1149
950.146	1149
950.375	1212
950.604	1114
950.833	1210
951.062	1214
951.291	1158
951.52	1130
951.749	1152
951.978	1094
952.206	1125
952.435	1111
952.664	1148
952.892	1187
953.121	1172
953.349	1161
953.578	1172
953.806	1124
954.035	1102
954.263	1134
954.491	1083
954.719	1111
954.948	1115
955.176	1093
955.404	1046
955.632	1106
955.86	1129
956.088	1113
956.316	1122
956.544	1142
956.772	1113
956.999	1074
957.227	1161
957.455	1079
957.683	1090
957.91	1057
958.138	1066
958.365	1069
958.593	1057
958.82	1026
959.048	1093
959.275	1055
959.502	1054
959.73	1056
959.957	1085
960.184	1128
960.411	1076
960.638	1152
960.865	1069
961.092	1124
961.319	986
961.546	1115
961.773	1117
962	1031
962.227	1098
962.454	1077
962.68	1053
962.907	1082
963.134	1028
963.36	1086
963.587	1099
963.813	1020
964.04	1072
964.266	1020
964.493	1098
964.719	1091
964.945	1075
965.171	996
965.398	1050
965.624	1080
965.85	1004
966.076	999
966.302	1062
966.528	1019
966.754	1037
966.98	1042
967.206	1028
967.431	995
967.657	1090
967.883	1035
968.109	1053
968.334	988
968.56	971
968.785	1007
969.011	961
969.236	1039
969.462	965
969.687	973
969.912	1043
970.138	1065
970.363	988
970.588	1012
970.813	986
971.038	966
971.263	999
971.488	1020
971.713	1042
971.938	1000
972.163	938
972.388	988
972.613	945
972.838	980
973.062	952
973.287	966
973.512	899
973.736	950
973.961	964
974.185	951
974.41	988
974.634	891
974.858	895
975.083	991
975.307	995
975.531	927
975.755	877
975.98	909
976.204	853
976.428	843
976.652	889
976.876	870
977.1	900
977.324	856
977.547	933
977.771	949
977.995	901
978.219	832
978.442	961
978.666	921
978.89	919
979.113	902
979.337	886
979.56	855
979.783	966
980.007	861
980.23	879
980.453	856
980.677	906
980.9	893
981.123	808
981.346	917
981.569	868
981.792	916
982.015	872
982.238	833
982.461	893
982.684	848
982.907	825
983.129	847
983.352	883
983.575	870
983.797	888
984.02	841
984.242	854
984.465	856
984.687	903
984.91	918
985.132	880
985.354	895
985.577	880
985.799	885
986.021	815
986.243	839
986.465	834
986.687	909
986.909	952
987.131	868
987.353	855
987.575	889
987.797	850
988.019	799
988.241	855
988.462	809
988.684	889
988.906	902
989.127	899
989.349	813
989.57	861
989.792	895
990.013	901
990.234	895
990.456	934
990.677	904
990.898	857
991.119	867
991.341	894
991.562	817
991.783	892
992.004	829
992.225	814
992.446	872
992.667	787
992.887	889
993.108	778
993.329	900
993.55	861
993.77	799
993.991	818
994.212	854
994.432	842
994.653	862
994.873	856
995.093	754
995.314	814
995.534	876
995.754	887
995.975	906
996.195	804
996.415	881
996.635	837
996.855	869
997.075	832
997.295	823
997.515	803
997.735	879
997.955	833
998.174	840
998.394	840
998.614	872
998.834	818
999.053	884
999.273	836
999.492	903
999.712	850
999.931	818
1000.151	881
1000.37	860
1000.589	916
1000.809	857
1001.028	965
1001.247	910
1001.466	807
1001.685	940
1001.904	898
1002.123	873
1002.342	907
1002.561	840
1002.78	891
1002.999	964
1003.218	899
1003.436	890
1003.655	917
1003.874	865
1004.092	900
1004.311	931
1004.53	916
1004.748	991
1004.966	887
1005.185	953
1005.403	954
1005.622	930
1005.84	996
1006.058	899
1006.276	928
1006.494	1437
1006.712	929
1006.931	985
1007.149	896
1007.367	900
1007.584	924
1007.802	981
1008.02	890
1008.238	998
1008.456	985
1008.673	860
1008.891	992
1009.109	913
1009.326	960
1009.544	1033
1009.761	919
1009.979	994
1010.196	976
1010.413	1049
1010.631	1087
1010.848	1103
1011.065	1101
1011.282	1023
1011.5	988
1011.717	1079
1011.934	1022
1012.151	1085
1012.368	1051
1012.585	1009
1012.801	1053
1013.018	1037
1013.235	991
1013.452	1010
1013.669	1024
1013.885	993
1014.102	1026
1014.318	981
1014.535	962
1014.751	992
1014.968	988
1015.184	1015
1015.401	941
1015.617	972
1015.833	939
1016.049	973
1016.266	952
1016.482	969
1016.698	900
1016.914	966
1017.13	911
1017.346	910
1017.562	998
1017.778	899
1017.993	865
1018.209	932
1018.425	928
1018.641	888
1018.856	862
1019.072	893
1019.288	954
1019.503	894
1019.719	813
1019.934	828
1020.149	939
1020.365	851
1020.58	811
1020.795	879
1021.011	830
1021.226	825
1021.441	837
1021.656	779
1021.871	734
1022.086	741
1022.301	745
1022.516	732
1022.731	788
1022.946	705
1023.16	703
1023.375	687
1023.59	693
1023.804	648
1024.019	752
1024.234	641
1024.448	676
1024.663	615
1024.877	651
1025.092	668
1025.306	676
1025.52	581
1025.734	701
1025.949	618
1026.163	606
1026.377	563
1026.591	601
1026.805	531
1027.019	536
1027.233	500
1027.447	463
1027.661	572
1027.875	517
1028.088	521
1028.302	442
1028.516	461
1028.73	469
1028.943	468
1029.157	433
1029.37	402
1029.584	0
1029.797	-1
1030.011	-2
1030.224	-6
