Data from QEP037381__534__17-37-07-570.txt Node

Date: Fri Dec 16 17:37:07 EST 2022
User: dcclab
Spectrometer: QEP03738
Trigger mode: 4
Integration Time (sec): 1.000000E1
Scans to average: 1
Electric dark correction enabled: true
Nonlinearity correction enabled: false
Boxcar width: 0
XAxis mode: Wavelengths
Number of Pixels in Spectrum: 1044
>>>>>Begin Spectral Data<<<<<
784.041	11
784.3	0
784.558	0
784.817	-4
785.075	89940
785.334	15815
785.592	7475
785.851	5116
786.109	3881
786.368	3034
786.626	2443
786.884	2017
787.143	1695
787.401	1406
787.659	1279
787.917	1114
788.175	1023
788.433	916
788.691	821
788.949	757
789.207	716
789.465	645
789.723	615
789.98	558
790.238	612
790.496	568
790.753	544
791.011	590
791.268	524
791.526	520
791.783	538
792.041	525
792.298	444
792.556	505
792.813	470
793.07	454
793.327	442
793.584	509
793.841	444
794.099	488
794.356	520
794.613	425
794.869	461
795.126	434
795.383	420
795.64	439
795.897	409
796.153	441
796.41	426
796.667	413
796.923	408
797.18	434
797.436	459
797.693	425
797.949	464
798.206	487
798.462	405
798.718	492
798.974	454
799.231	499
799.487	485
799.743	508
799.999	513
800.255	518
800.511	507
800.767	546
801.023	531
801.279	581
801.534	612
801.79	650
802.046	707
802.302	836
802.557	976
802.813	1184
803.068	1470
803.324	2043
803.579	2767
803.835	3883
804.09	5287
804.345	6971
804.601	8798
804.856	10653
805.111	12377
805.366	13658
805.621	14587
805.876	15312
806.131	15745
806.386	16027
806.641	16382
806.896	16668
807.151	17004
807.406	17274
807.661	17663
807.915	18000
808.17	18197
808.425	18601
808.679	18585
808.934	18876
809.188	19113
809.443	19369
809.697	19500
809.951	19726
810.206	19869
810.46	20045
810.714	20295
810.968	20499
811.223	20534
811.477	20899
811.731	21038
811.985	21069
812.239	21270
812.493	21429
812.747	21424
813	21502
813.254	21645
813.508	21808
813.762	21844
814.015	21982
814.269	22106
814.522	22266
814.776	22542
815.03	22952
815.283	23252
815.536	23684
815.79	23961
816.043	24385
816.296	24669
816.55	25060
816.803	25277
817.056	25679
817.309	26011
817.562	26136
817.815	26600
818.068	26753
818.321	27072
818.574	27268
818.827	27812
819.079	28051
819.332	28753
819.585	28813
819.838	29182
820.09	29400
820.343	29649
820.595	29829
820.848	29979
821.1	30011
821.353	30187
821.605	30203
821.857	30165
822.11	29988
822.362	29997
822.614	29914
822.866	29922
823.118	29800
823.37	30083
823.622	30195
823.874	30199
824.126	30167
824.378	30293
824.63	30452
824.882	30348
825.134	30466
825.385	30396
825.637	30376
825.888	30272
826.14	30282
826.392	30204
826.643	29961
826.895	29927
827.146	29755
827.397	29622
827.649	29692
827.9	29579
828.151	29563
828.402	29740
828.653	29819
828.905	29855
829.156	29927
829.407	30001
829.658	29935
829.909	29988
830.159	29855
830.41	29799
830.661	29510
830.912	29487
831.162	29289
831.413	29285
831.664	29323
831.914	29259
832.165	29238
832.415	29116
832.666	29144
832.916	29216
833.167	29141
833.417	29152
833.667	28996
833.917	28904
834.168	28791
834.418	28838
834.668	28688
834.918	28441
835.168	28457
835.418	28135
835.668	28232
835.918	28089
836.167	28064
836.417	27999
836.667	27759
836.917	27961
837.166	27759
837.416	27857
837.666	27773
837.915	27781
838.165	27720
838.414	27532
838.663	27513
838.913	27532
839.162	27473
839.411	27513
839.661	27321
839.91	27202
840.159	27267
840.408	27185
840.657	27118
840.906	27222
841.155	27211
841.404	27163
841.653	27226
841.902	27067
842.15	27184
842.399	27263
842.648	27189
842.897	27123
843.145	26935
843.394	26653
843.642	26590
843.891	26463
844.139	26253
844.388	26057
844.636	26045
844.884	26024
845.133	26002
845.381	25862
845.629	25956
845.877	25807
846.125	25873
846.373	25801
846.621	25722
846.869	25642
847.117	25510
847.365	25279
847.613	25188
847.861	25129
848.108	25082
848.356	25041
848.604	24931
848.851	24879
849.099	24965
849.346	24911
849.594	25182
849.841	25185
850.089	25164
850.336	25151
850.583	25001
850.831	24966
851.078	24919
851.325	24907
851.572	24942
851.819	24780
852.066	24312
852.313	23907
852.56	23751
852.807	23661
853.054	23564
853.301	23453
853.548	23536
853.794	23699
854.041	23682
854.288	23732
854.534	23929
854.781	23955
855.028	23755
855.274	23760
855.52	23673
855.767	23439
856.013	23482
856.26	23759
856.506	23280
856.752	23196
856.998	23107
857.244	23299
857.49	23414
857.736	23415
857.982	23463
858.228	23203
858.474	23175
858.72	23012
858.966	22813
859.212	22604
859.458	22275
859.703	22133
859.949	21867
860.195	21705
860.44	21672
860.686	21570
860.931	21607
861.177	21476
861.422	21268
861.667	21283
861.913	21250
862.158	21217
862.403	21327
862.648	21346
862.893	21399
863.138	21325
863.384	21179
863.629	21231
863.873	21206
864.118	21074
864.363	20935
864.608	20949
864.853	20890
865.098	20719
865.342	20670
865.587	20567
865.832	20594
866.076	20550
866.321	20408
866.565	20348
866.81	20195
867.054	20176
867.298	20183
867.543	20068
867.787	20036
868.031	19939
868.275	19893
868.519	19904
868.764	19870
869.008	19911
869.252	19681
869.496	19695
869.739	19586
869.983	19706
870.227	19601
870.471	19520
870.715	19617
870.958	19675
871.202	19737
871.446	19632
871.689	19755
871.933	19752
872.176	19578
872.42	19598
872.663	19491
872.906	19541
873.15	19365
873.393	19197
873.636	19282
873.879	19081
874.122	18933
874.366	18633
874.609	18566
874.852	18488
875.095	18354
875.337	18258
875.58	18083
875.823	18025
876.066	18082
876.309	18012
876.551	17788
876.794	17735
877.037	17744
877.279	17618
877.522	17621
877.764	17670
878.007	17602
878.249	17613
878.491	17613
878.734	17546
878.976	17479
879.218	17385
879.46	17294
879.702	17201
879.945	17076
880.187	16846
880.429	16666
880.671	16720
880.912	16554
881.154	16633
881.396	16438
881.638	16427
881.88	16440
882.121	16406
882.363	16400
882.605	16378
882.846	16316
883.088	16288
883.329	16167
883.571	16216
883.812	16196
884.053	16467
884.295	16703
884.536	16873
884.777	16700
885.018	16622
885.259	16590
885.5	16469
885.742	16743
885.982	16355
886.223	16359
886.464	16194
886.705	16101
886.946	15836
887.187	15657
887.428	15595
887.668	15263
887.909	15145
888.15	15017
888.39	14920
888.631	14822
888.871	14672
889.111	14550
889.352	14582
889.592	14421
889.833	14196
890.073	14179
890.313	14148
890.553	13978
890.793	13928
891.033	13783
891.273	13810
891.513	13722
891.753	13750
891.993	13630
892.233	13680
892.473	13868
892.713	13761
892.952	13695
893.192	13684
893.432	13605
893.671	13653
893.911	13591
894.15	13524
894.39	13386
894.629	13392
894.869	13329
895.108	13245
895.347	13075
895.587	13123
895.826	13088
896.065	12993
896.304	13059
896.543	13029
896.782	12876
897.021	12898
897.26	12842
897.499	12883
897.738	12874
897.977	12701
898.216	12627
898.454	12571
898.693	12521
898.932	12453
899.17	12323
899.409	12353
899.647	12226
899.886	12280
900.124	12291
900.363	12127
900.601	12360
900.839	12306
901.078	12348
901.316	12297
901.554	12355
901.792	12444
902.03	12422
902.268	12409
902.506	12416
902.744	12208
902.982	12294
903.22	12007
903.458	11893
903.695	11707
903.933	11507
904.171	11326
904.409	11096
904.646	11089
904.884	10867
905.121	10845
905.359	10686
905.596	10510
905.833	10441
906.071	10378
906.308	10434
906.545	10385
906.783	10250
907.02	10263
907.257	10153
907.494	10181
907.731	10170
907.968	10117
908.205	9946
908.442	9966
908.679	9857
908.915	9818
909.152	9684
909.389	9590
909.626	9561
909.862	9509
910.099	9459
910.335	9448
910.572	9364
910.808	9413
911.045	9312
911.281	9229
911.518	9292
911.754	9162
911.99	9134
912.226	9050
912.463	8966
912.699	8919
912.935	8842
913.171	8755
913.407	8666
913.643	8666
913.879	8619
914.114	8450
914.35	8379
914.586	8356
914.822	8242
915.057	8308
915.293	8148
915.529	8094
915.764	8113
916	8037
916.235	8022
916.471	8054
916.706	7967
916.941	7943
917.177	7963
917.412	7982
917.647	7964
917.882	7874
918.117	7912
918.352	7869
918.588	7842
918.823	7727
919.057	7706
919.292	7513
919.527	7633
919.762	7484
919.997	7464
920.232	7288
920.466	7309
920.701	7157
920.935	7158
921.17	7135
921.405	7036
921.639	7067
921.873	7002
922.108	6979
922.342	6983
922.576	6837
922.811	6831
923.045	6895
923.279	6888
923.513	6704
923.747	6809
923.981	6662
924.215	6666
924.449	6615
924.683	6571
924.917	6586
925.151	6457
925.385	6537
925.618	6471
925.852	6407
926.086	6385
926.319	6390
926.553	6390
926.786	6422
927.02	6382
927.253	6388
927.486	6363
927.72	6318
927.953	6335
928.186	6276
928.42	6262
928.653	6212
928.886	6195
929.119	6211
929.352	6202
929.585	6186
929.818	6088
930.051	6046
930.284	5961
930.516	5888
930.749	5844
930.982	5869
931.215	5847
931.447	5712
931.68	5743
931.912	5751
932.145	5764
932.377	5710
932.61	5892
932.842	5661
933.074	5741
933.307	5657
933.539	5794
933.771	5653
934.003	5701
934.236	5744
934.468	5731
934.7	5656
934.932	5681
935.164	5594
935.395	5580
935.627	5564
935.859	5564
936.091	5523
936.323	5495
936.554	5556
936.786	5470
937.017	5444
937.249	5420
937.481	5358
937.712	5389
937.943	5359
938.175	5343
938.406	5303
938.637	5370
938.869	5374
939.1	5369
939.331	5277
939.562	5286
939.793	5288
940.024	5291
940.255	5224
940.486	5176
940.717	5196
940.948	5151
941.179	5067
941.409	5143
941.64	5072
941.871	5117
942.102	5099
942.332	5041
942.563	5096
942.793	5065
943.024	4950
943.254	5025
943.484	5111
943.715	5062
943.945	5005
944.175	4979
944.405	4911
944.636	4974
944.866	4950
945.096	4956
945.326	4914
945.556	4960
945.786	4936
946.016	4886
946.245	4809
946.475	4821
946.705	4767
946.935	4757
947.164	4768
947.394	4661
947.624	4651
947.853	4697
948.083	4662
948.312	4576
948.542	4528
948.771	4506
949	4473
949.23	4547
949.459	4505
949.688	4567
949.917	4548
950.146	4519
950.375	4587
950.604	4468
950.833	4524
951.062	4502
951.291	4464
951.52	4431
951.749	4413
951.978	4409
952.206	4414
952.435	4406
952.664	4345
952.892	4408
953.121	4377
953.349	4339
953.578	4324
953.806	4273
954.035	4205
954.263	4212
954.491	4149
954.719	4237
954.948	4144
955.176	4119
955.404	4018
955.632	4087
955.86	4093
956.088	4036
956.316	4101
956.544	4096
956.772	4005
956.999	3961
957.227	4018
957.455	3928
957.683	3941
957.91	3909
958.138	3867
958.365	3834
958.593	3841
958.82	3725
959.048	3863
959.275	3777
959.502	3792
959.73	3740
959.957	3817
960.184	3791
960.411	3699
960.638	3807
960.865	3700
961.092	3737
961.319	3653
961.546	3755
961.773	3742
962	3700
962.227	3721
962.454	3676
962.68	3616
962.907	3672
963.134	3595
963.36	3620
963.587	3578
963.813	3517
964.04	3581
964.266	3473
964.493	3588
964.719	3493
964.945	3517
965.171	3434
965.398	3435
965.624	3463
965.85	3357
966.076	3344
966.302	3396
966.528	3329
966.754	3317
966.98	3338
967.206	3343
967.431	3260
967.657	3342
967.883	3289
968.109	3304
968.334	3246
968.56	3184
968.785	3198
969.011	3160
969.236	3211
969.462	3173
969.687	3202
969.912	3225
970.138	3249
970.363	3100
970.588	3177
970.813	3132
971.038	3067
971.263	3124
971.488	3104
971.713	3111
971.938	3127
972.163	3020
972.388	3023
972.613	3019
972.838	3005
973.062	2985
973.287	3006
973.512	2896
973.736	2941
973.961	2937
974.185	2881
974.41	2928
974.634	2860
974.858	2799
975.083	2855
975.307	2910
975.531	2776
975.755	2765
975.98	2742
976.204	2697
976.428	2701
976.652	2700
976.876	2669
977.1	2662
977.324	2681
977.547	2727
977.771	2722
977.995	2650
978.219	2623
978.442	2734
978.666	2666
978.89	2645
979.113	2612
979.337	2598
979.56	2544
979.783	2682
980.007	2540
980.23	2571
980.453	2545
980.677	2565
980.9	2556
981.123	2439
981.346	2550
981.569	2537
981.792	2504
982.015	2472
982.238	2443
982.461	2450
982.684	2422
982.907	2411
983.129	2349
983.352	2411
983.575	2394
983.797	2393
984.02	2328
984.242	2346
984.465	2324
984.687	2381
984.91	2381
985.132	2356
985.354	2355
985.577	2323
985.799	2286
986.021	2218
986.243	2220
986.465	2246
986.687	2283
986.909	2342
987.131	2265
987.353	2204
987.575	2239
987.797	2187
988.019	2155
988.241	2204
988.462	2157
988.684	2214
988.906	2240
989.127	2256
989.349	2107
989.57	2194
989.792	2197
990.013	2218
990.234	2173
990.456	2190
990.677	2182
990.898	2122
991.119	2102
991.341	2152
991.562	2104
991.783	2131
992.004	2053
992.225	2030
992.446	2072
992.667	2003
992.887	2085
993.108	1962
993.329	2113
993.55	2014
993.77	1956
993.991	1942
994.212	1999
994.432	1971
994.653	1959
994.873	1947
995.093	1858
995.314	1920
995.534	1938
995.754	1952
995.975	1989
996.195	1875
996.415	1891
996.635	1916
996.855	1882
997.075	1878
997.295	1879
997.515	1860
997.735	1906
997.955	1866
998.174	1852
998.394	1829
998.614	1893
998.834	1849
999.053	1875
999.273	1887
999.492	1896
999.712	1858
999.931	1821
1000.151	1846
1000.37	1824
1000.589	1898
1000.809	1778
1001.028	1905
1001.247	1814
1001.466	1743
1001.685	1878
1001.904	1807
1002.123	1776
1002.342	1794
1002.561	1734
1002.78	1749
1002.999	1797
1003.218	1718
1003.436	1716
1003.655	1768
1003.874	1698
1004.092	1700
1004.311	1752
1004.53	1739
1004.748	1794
1004.966	1701
1005.185	1779
1005.403	1749
1005.622	1735
1005.84	1796
1006.058	1685
1006.276	1714
1006.494	2054
1006.712	1702
1006.931	1755
1007.149	1676
1007.367	1687
1007.584	1717
1007.802	1768
1008.02	1692
1008.238	1792
1008.456	1785
1008.673	1665
1008.891	1770
1009.109	1718
1009.326	1792
1009.544	1834
1009.761	1738
1009.979	1828
1010.196	1852
1010.413	1941
1010.631	1984
1010.848	2058
1011.065	2046
1011.282	1978
1011.5	1929
1011.717	2033
1011.934	1964
1012.151	2008
1012.368	1972
1012.585	1923
1012.801	1966
1013.018	1933
1013.235	1894
1013.452	1939
1013.669	1962
1013.885	1929
1014.102	1975
1014.318	1937
1014.535	1907
1014.751	1882
1014.968	1919
1015.184	1937
1015.401	1871
1015.617	1885
1015.833	1806
1016.049	1836
1016.266	1818
1016.482	1830
1016.698	1723
1016.914	1791
1017.13	1750
1017.346	1714
1017.562	1786
1017.778	1691
1017.993	1698
1018.209	1719
1018.425	1737
1018.641	1690
1018.856	1662
1019.072	1695
1019.288	1726
1019.503	1695
1019.719	1592
1019.934	1604
1020.149	1702
1020.365	1627
1020.58	1579
1020.795	1657
1021.011	1540
1021.226	1546
1021.441	1556
1021.656	1493
1021.871	1394
1022.086	1406
1022.301	1388
1022.516	1412
1022.731	1415
1022.946	1340
1023.16	1323
1023.375	1286
1023.59	1239
1023.804	1218
1024.019	1311
1024.234	1182
1024.448	1231
1024.663	1158
1024.877	1145
1025.092	1168
1025.306	1186
1025.52	1075
1025.734	1172
1025.949	1080
1026.163	1043
1026.377	958
1026.591	1031
1026.805	969
1027.019	959
1027.233	908
1027.447	839
1027.661	977
1027.875	900
1028.088	897
1028.302	825
1028.516	807
1028.73	817
1028.943	786
1029.157	769
1029.37	691
1029.584	0
1029.797	-3
1030.011	0
1030.224	-4
