Data from QEP037381__525__17-35-37-569.txt Node

Date: Fri Dec 16 17:35:37 EST 2022
User: dcclab
Spectrometer: QEP03738
Trigger mode: 4
Integration Time (sec): 1.000000E1
Scans to average: 1
Electric dark correction enabled: true
Nonlinearity correction enabled: false
Boxcar width: 0
XAxis mode: Wavelengths
Number of Pixels in Spectrum: 1044
>>>>>Begin Spectral Data<<<<<
784.041	15
784.3	-3
784.558	-3
784.817	-1
785.075	95432
785.334	16487
785.592	7725
785.851	5352
786.109	4102
786.368	3146
786.626	2560
786.884	2144
787.143	1799
787.401	1500
787.659	1348
787.917	1156
788.175	1065
788.433	931
788.691	863
788.949	781
789.207	758
789.465	669
789.723	634
789.98	591
790.238	634
790.496	578
790.753	572
791.011	621
791.268	546
791.526	533
791.783	550
792.041	546
792.298	469
792.556	505
792.813	498
793.07	478
793.327	466
793.584	544
793.841	475
794.099	493
794.356	534
794.613	449
794.869	482
795.126	448
795.383	438
795.64	447
795.897	407
796.153	464
796.41	464
796.667	454
796.923	453
797.18	445
797.436	466
797.693	456
797.949	487
798.206	526
798.462	454
798.718	501
798.974	477
799.231	515
799.487	516
799.743	529
799.999	558
800.255	547
800.511	547
800.767	580
801.023	575
801.279	631
801.534	669
801.79	737
802.046	788
802.302	935
802.557	1086
802.813	1370
803.068	1726
803.324	2403
803.579	3325
803.835	4705
804.09	6562
804.345	8628
804.601	11000
804.856	13415
805.111	15610
805.366	17304
805.621	18554
805.876	19344
806.131	19883
806.386	20380
806.641	20818
806.896	21100
807.151	21632
807.406	21993
807.661	22456
807.915	22814
808.17	23264
808.425	23561
808.679	23727
808.934	24111
809.188	24188
809.443	24553
809.697	24855
809.951	25109
810.206	25355
810.46	25709
810.714	25948
810.968	26235
811.223	26311
811.477	26636
811.731	26853
811.985	27074
812.239	27195
812.493	27284
812.747	27302
813	27537
813.254	27755
813.508	27800
813.762	27867
814.015	28165
814.269	28338
814.522	28726
814.776	29072
815.03	29463
815.283	29722
815.536	30334
815.79	30738
816.043	31387
816.296	31764
816.55	32199
816.803	32453
817.056	32992
817.309	33347
817.562	33619
817.815	34055
818.068	34362
818.321	34771
818.574	35258
818.827	35785
819.079	36112
819.332	36816
819.585	37095
819.838	37732
820.09	38068
820.343	38384
820.595	38628
820.848	38951
821.1	39063
821.353	39105
821.605	39025
821.857	39107
822.11	38996
822.362	38872
822.614	38777
822.866	38803
823.118	38839
823.37	38929
823.622	39037
823.874	38891
824.126	39243
824.378	39350
824.63	39373
824.882	39555
825.134	39514
825.385	39418
825.637	39443
825.888	39263
826.14	39042
826.392	39055
826.643	38728
826.895	38911
827.146	38571
827.397	38480
827.649	38602
827.9	38572
828.151	38542
828.402	38612
828.653	38709
828.905	38925
829.156	38856
829.407	38868
829.658	38782
829.909	38908
830.159	38701
830.41	38551
830.661	38265
830.912	38089
831.162	37921
831.413	37885
831.664	38051
831.914	37942
832.165	37962
832.415	37951
832.666	37831
832.916	37856
833.167	37896
833.417	37806
833.667	37788
833.917	37633
834.168	37576
834.418	37404
834.668	37309
834.918	37054
835.168	36941
835.418	36819
835.668	36661
835.918	36672
836.167	36598
836.417	36536
836.667	36311
836.917	36282
837.166	36097
837.416	36343
837.666	36205
837.915	36064
838.165	36090
838.414	35903
838.663	35663
838.913	35898
839.162	35661
839.411	35717
839.661	35564
839.91	35478
840.159	35275
840.408	35203
840.657	35252
840.906	35350
841.155	35304
841.404	35143
841.653	35248
841.902	35121
842.15	35295
842.399	35411
842.648	35145
842.897	34996
843.145	34799
843.394	34778
843.642	34576
843.891	34410
844.139	34236
844.388	33925
844.636	33878
844.884	33698
845.133	33680
845.381	33714
845.629	33732
845.877	33772
846.125	33684
846.373	33447
846.621	33372
846.869	33305
847.117	33104
847.365	32959
847.613	32777
847.861	32703
848.108	32735
848.356	32474
848.604	32467
848.851	32407
849.099	32577
849.346	32509
849.594	32869
849.841	32778
850.089	32941
850.336	32840
850.583	32604
850.831	32617
851.078	32379
851.325	32370
851.572	32382
851.819	31965
852.066	31483
852.313	31163
852.56	30812
852.807	30723
853.054	30603
853.301	30541
853.548	30481
853.794	30736
854.041	30897
854.288	30978
854.534	31128
854.781	31234
855.028	30930
855.274	30968
855.52	30622
855.767	30566
856.013	30385
856.26	30715
856.506	30136
856.752	30273
856.998	30153
857.244	30077
857.49	30299
857.736	30400
857.982	30410
858.228	30237
858.474	30079
858.72	29867
858.966	29797
859.212	29382
859.458	28930
859.703	28824
859.949	28445
860.195	28364
860.44	28212
860.686	27952
860.931	27900
861.177	27725
861.422	27770
861.667	27697
861.913	27692
862.158	27625
862.403	27806
862.648	27803
862.893	27856
863.138	27920
863.384	27809
863.629	27860
863.873	27732
864.118	27499
864.363	27380
864.608	27366
864.853	27367
865.098	27213
865.342	27025
865.587	26812
865.832	26920
866.076	26768
866.321	26698
866.565	26540
866.81	26445
867.054	26439
867.298	26229
867.543	26174
867.787	26140
868.031	26007
868.275	26037
868.519	25887
868.764	25835
869.008	25731
869.252	25731
869.496	25594
869.739	25584
869.983	25454
870.227	25379
870.471	25420
870.715	25449
870.958	25556
871.202	25506
871.446	25526
871.689	25484
871.933	25457
872.176	25487
872.42	25362
872.663	25270
872.906	25308
873.15	25057
873.393	24870
873.636	24756
873.879	24667
874.122	24431
874.366	24092
874.609	23900
874.852	23808
875.095	23759
875.337	23671
875.58	23417
875.823	23366
876.066	23272
876.309	23370
876.551	23102
876.794	22875
877.037	22920
877.279	22815
877.522	22834
877.764	23048
878.007	22928
878.249	22892
878.491	22843
878.734	22941
878.976	22792
879.218	22521
879.46	22573
879.702	22364
879.945	22071
880.187	22055
880.429	21835
880.671	21844
880.912	21717
881.154	21562
881.396	21491
881.638	21550
881.88	21532
882.121	21461
882.363	21394
882.605	21271
882.846	21361
883.088	21212
883.329	21045
883.571	21084
883.812	20977
884.053	21139
884.295	21286
884.536	21390
884.777	21287
885.018	21114
885.259	21111
885.5	20997
885.742	21180
885.982	21051
886.223	20866
886.464	20836
886.705	20679
886.946	20461
887.187	20272
887.428	20126
887.668	19892
887.909	19745
888.15	19446
888.39	19491
888.631	19369
888.871	19237
889.111	19087
889.352	19005
889.592	18832
889.833	18768
890.073	18545
890.313	18579
890.553	18237
890.793	18243
891.033	18157
891.273	18066
891.513	17990
891.753	17962
891.993	17963
892.233	17996
892.473	18037
892.713	18023
892.952	17899
893.192	17979
893.432	17950
893.671	17893
893.911	17765
894.15	17720
894.39	17545
894.629	17459
894.869	17323
895.108	17269
895.347	17164
895.587	17166
895.826	17120
896.065	16973
896.304	16963
896.543	16980
896.782	16885
897.021	16838
897.26	16698
897.499	16796
897.738	16715
897.977	16524
898.216	16399
898.454	16296
898.693	16155
898.932	16068
899.17	15990
899.409	15901
899.647	15899
899.886	15835
900.124	15934
900.363	15868
900.601	15950
900.839	15841
901.078	15848
901.316	15812
901.554	15916
901.792	16010
902.03	15834
902.268	15793
902.506	15857
902.744	15754
902.982	15693
903.22	15457
903.458	15202
903.695	15159
903.933	14916
904.171	14719
904.409	14530
904.646	14404
904.884	14105
905.121	14100
905.359	13938
905.596	13842
905.833	13668
906.071	13617
906.308	13621
906.545	13596
906.783	13470
907.02	13447
907.257	13292
907.494	13402
907.731	13255
907.968	13214
908.205	13193
908.442	13068
908.679	13080
908.915	12844
909.152	12855
909.389	12629
909.626	12565
909.862	12449
910.099	12442
910.335	12462
910.572	12279
910.808	12350
911.045	12248
911.281	12197
911.518	12153
911.754	12113
911.99	12046
912.226	11970
912.463	11795
912.699	11770
912.935	11628
913.171	11576
913.407	11464
913.643	11424
913.879	11239
914.114	11166
914.35	11058
914.586	10963
914.822	10925
915.057	10893
915.293	10650
915.529	10623
915.764	10676
916	10648
916.235	10616
916.471	10563
916.706	10565
916.941	10469
917.177	10424
917.412	10476
917.647	10487
917.882	10478
918.117	10490
918.352	10374
918.588	10324
918.823	10221
919.057	10181
919.292	9905
919.527	9954
919.762	9769
919.997	9775
920.232	9621
920.466	9558
920.701	9329
920.935	9378
921.17	9355
921.405	9249
921.639	9327
921.873	9244
922.108	9140
922.342	9243
922.576	8984
922.811	9083
923.045	9124
923.279	9012
923.513	8899
923.747	8918
923.981	8844
924.215	8791
924.449	8698
924.683	8637
924.917	8586
925.151	8546
925.385	8534
925.618	8470
925.852	8404
926.086	8381
926.319	8354
926.553	8393
926.786	8386
927.02	8338
927.253	8372
927.486	8405
927.72	8272
927.953	8322
928.186	8276
928.42	8258
928.653	8188
928.886	8146
929.119	8134
929.352	8066
929.585	8029
929.818	7971
930.051	7865
930.284	7816
930.516	7714
930.749	7618
930.982	7654
931.215	7588
931.447	7506
931.68	7530
931.912	7516
932.145	7495
932.377	7505
932.61	7659
932.842	7502
933.074	7519
933.307	7435
933.539	7499
933.771	7498
934.003	7428
934.236	7471
934.468	7537
934.7	7363
934.932	7357
935.164	7321
935.395	7262
935.627	7298
935.859	7253
936.091	7224
936.323	7233
936.554	7271
936.786	7200
937.017	7055
937.249	7075
937.481	6995
937.712	7064
937.943	6981
938.175	6988
938.406	6988
938.637	7061
938.869	6946
939.1	6975
939.331	6847
939.562	6971
939.793	6842
940.024	6851
940.255	6841
940.486	6808
940.717	6771
940.948	6716
941.179	6695
941.409	6655
941.64	6685
941.871	6669
942.102	6551
942.332	6627
942.563	6633
942.793	6620
943.024	6551
943.254	6603
943.484	6622
943.715	6615
943.945	6570
944.175	6571
944.405	6478
944.636	6495
944.866	6500
945.096	6545
945.326	6331
945.556	6468
945.786	6502
946.016	6346
946.245	6234
946.475	6205
946.705	6206
946.935	6158
947.164	6166
947.394	6091
947.624	6076
947.853	6136
948.083	6068
948.312	5964
948.542	5949
948.771	5935
949	5924
949.23	5921
949.459	5933
949.688	6000
949.917	5895
950.146	5834
950.375	5948
950.604	5799
950.833	5880
951.062	5869
951.291	5777
951.52	5819
951.749	5811
951.978	5729
952.206	5723
952.435	5677
952.664	5728
952.892	5726
953.121	5629
953.349	5636
953.578	5654
953.806	5531
954.035	5559
954.263	5485
954.491	5449
954.719	5492
954.948	5438
955.176	5420
955.404	5327
955.632	5428
955.86	5349
956.088	5303
956.316	5292
956.544	5315
956.772	5245
956.999	5202
957.227	5241
957.455	5128
957.683	5134
957.91	5086
958.138	5022
958.365	5033
958.593	4988
958.82	4955
959.048	4979
959.275	4941
959.502	4867
959.73	4900
959.957	4926
960.184	4941
960.411	4831
960.638	4937
960.865	4890
961.092	4901
961.319	4833
961.546	4834
961.773	4887
962	4767
962.227	4883
962.454	4784
962.68	4742
962.907	4777
963.134	4652
963.36	4676
963.587	4745
963.813	4623
964.04	4644
964.266	4512
964.493	4559
964.719	4567
964.945	4543
965.171	4462
965.398	4499
965.624	4522
965.85	4368
966.076	4329
966.302	4374
966.528	4333
966.754	4351
966.98	4308
967.206	4328
967.431	4241
967.657	4324
967.883	4255
968.109	4228
968.334	4190
968.56	4216
968.785	4207
969.011	4149
969.236	4192
969.462	4124
969.687	4100
969.912	4096
970.138	4155
970.363	4042
970.588	4111
970.813	4069
971.038	3965
971.263	3998
971.488	4004
971.713	4037
971.938	4006
972.163	3903
972.388	3902
972.613	3856
972.838	3856
973.062	3869
973.287	3826
973.512	3828
973.736	3793
973.961	3796
974.185	3756
974.41	3797
974.634	3660
974.858	3658
975.083	3667
975.307	3668
975.531	3601
975.755	3570
975.98	3529
976.204	3463
976.428	3521
976.652	3465
976.876	3446
977.1	3491
977.324	3418
977.547	3433
977.771	3423
977.995	3447
978.219	3353
978.442	3466
978.666	3403
978.89	3404
979.113	3367
979.337	3351
979.56	3288
979.783	3408
980.007	3297
980.23	3296
980.453	3261
980.677	3271
980.9	3264
981.123	3144
981.346	3258
981.569	3202
981.792	3218
982.015	3134
982.238	3087
982.461	3159
982.684	3089
982.907	3054
983.129	3035
983.352	3077
983.575	3059
983.797	3009
984.02	3011
984.242	2988
984.465	2963
984.687	2998
984.91	3006
985.132	2943
985.354	2984
985.577	2964
985.799	2947
986.021	2804
986.243	2846
986.465	2803
986.687	2925
986.909	2884
987.131	2874
987.353	2821
987.575	2867
987.797	2780
988.019	2737
988.241	2791
988.462	2743
988.684	2819
988.906	2810
989.127	2834
989.349	2707
989.57	2744
989.792	2785
990.013	2791
990.234	2752
990.456	2786
990.677	2737
990.898	2708
991.119	2677
991.341	2689
991.562	2633
991.783	2665
992.004	2566
992.225	2554
992.446	2571
992.667	2514
992.887	2571
993.108	2463
993.329	2583
993.55	2539
993.77	2442
993.991	2429
994.212	2494
994.432	2442
994.653	2462
994.873	2443
995.093	2318
995.314	2387
995.534	2403
995.754	2423
995.975	2443
996.195	2303
996.415	2390
996.635	2337
996.855	2386
997.075	2333
997.295	2303
997.515	2316
997.735	2342
997.955	2359
998.174	2264
998.394	2267
998.614	2316
998.834	2234
999.053	2315
999.273	2301
999.492	2341
999.712	2225
999.931	2228
1000.151	2232
1000.37	2224
1000.589	2289
1000.809	2183
1001.028	2297
1001.247	2238
1001.466	2107
1001.685	2251
1001.904	2166
1002.123	2129
1002.342	2156
1002.561	2084
1002.78	2116
1002.999	2144
1003.218	2092
1003.436	2074
1003.655	2156
1003.874	2079
1004.092	2078
1004.311	2110
1004.53	2078
1004.748	2148
1004.966	2040
1005.185	2067
1005.403	2083
1005.622	2074
1005.84	2132
1006.058	1999
1006.276	2038
1006.494	2401
1006.712	2034
1006.931	2085
1007.149	1983
1007.367	1980
1007.584	2018
1007.802	2029
1008.02	2011
1008.238	2084
1008.456	2075
1008.673	1936
1008.891	2038
1009.109	1963
1009.326	2045
1009.544	2144
1009.761	2005
1009.979	2064
1010.196	2099
1010.413	2152
1010.631	2214
1010.848	2228
1011.065	2284
1011.282	2184
1011.5	2149
1011.717	2229
1011.934	2165
1012.151	2195
1012.368	2170
1012.585	2122
1012.801	2171
1013.018	2133
1013.235	2102
1013.452	2149
1013.669	2112
1013.885	2090
1014.102	2125
1014.318	2082
1014.535	2073
1014.751	2077
1014.968	2090
1015.184	2110
1015.401	1999
1015.617	2034
1015.833	1983
1016.049	1993
1016.266	1924
1016.482	1944
1016.698	1911
1016.914	1938
1017.13	1893
1017.346	1889
1017.562	1933
1017.778	1884
1017.993	1850
1018.209	1883
1018.425	1906
1018.641	1852
1018.856	1824
1019.072	1848
1019.288	1889
1019.503	1848
1019.719	1746
1019.934	1754
1020.149	1835
1020.365	1791
1020.58	1752
1020.795	1765
1021.011	1710
1021.226	1647
1021.441	1704
1021.656	1605
1021.871	1552
1022.086	1548
1022.301	1543
1022.516	1538
1022.731	1563
1022.946	1499
1023.16	1470
1023.375	1428
1023.59	1389
1023.804	1366
1024.019	1482
1024.234	1333
1024.448	1357
1024.663	1292
1024.877	1307
1025.092	1312
1025.306	1313
1025.52	1199
1025.734	1305
1025.949	1193
1026.163	1182
1026.377	1097
1026.591	1145
1026.805	1073
1027.019	1051
1027.233	1007
1027.447	961
1027.661	1061
1027.875	985
1028.088	1012
1028.302	919
1028.516	912
1028.73	903
1028.943	889
1029.157	815
1029.37	770
1029.584	0
1029.797	-3
1030.011	-1
1030.224	-4
