Data from QEP037381__501__17-28-07-563.txt Node

Date: Fri Dec 16 17:28:07 EST 2022
User: dcclab
Spectrometer: QEP03738
Trigger mode: 4
Integration Time (sec): 1.000000E1
Scans to average: 1
Electric dark correction enabled: true
Nonlinearity correction enabled: false
Boxcar width: 0
XAxis mode: Wavelengths
Number of Pixels in Spectrum: 1044
>>>>>Begin Spectral Data<<<<<
784.041	14
784.3	-2
784.558	0
784.817	-6
785.075	124025
785.334	21550
785.592	10080
785.851	6983
786.109	5258
786.368	4085
786.626	3309
786.884	2734
787.143	2255
787.401	1890
787.659	1682
787.917	1451
788.175	1268
788.433	1146
788.691	1015
788.949	931
789.207	893
789.465	764
789.723	727
789.98	691
790.238	715
790.496	674
790.753	619
791.011	661
791.268	592
791.526	584
791.783	589
792.041	576
792.298	478
792.556	545
792.813	529
793.07	515
793.327	485
793.584	572
793.841	496
794.099	519
794.356	586
794.613	473
794.869	516
795.126	478
795.383	441
795.64	475
795.897	419
796.153	504
796.41	468
796.667	466
796.923	467
797.18	460
797.436	489
797.693	457
797.949	517
798.206	530
798.462	445
798.718	511
798.974	492
799.231	554
799.487	517
799.743	537
799.999	554
800.255	569
800.511	561
800.767	615
801.023	611
801.279	645
801.534	688
801.79	784
802.046	806
802.302	981
802.557	1136
802.813	1466
803.068	1847
803.324	2568
803.579	3604
803.835	5027
804.09	6959
804.345	9165
804.601	11615
804.856	14067
805.111	16232
805.366	17861
805.621	18951
805.876	19704
806.131	20288
806.386	20604
806.641	20863
806.896	21173
807.151	21599
807.406	21863
807.661	22145
807.915	22604
808.17	22878
808.425	23152
808.679	23083
808.934	23399
809.188	23651
809.443	23717
809.697	24073
809.951	24212
810.206	24482
810.46	24731
810.714	24771
810.968	25037
811.223	25084
811.477	25374
811.731	25526
811.985	25767
812.239	25751
812.493	25827
812.747	25898
813	26088
813.254	26093
813.508	26263
813.762	26244
814.015	26320
814.269	26497
814.522	26844
814.776	27006
815.03	27374
815.283	27633
815.536	28102
815.79	28434
816.043	28887
816.296	29316
816.55	29448
816.803	29871
817.056	30098
817.309	30331
817.562	30674
817.815	30819
818.068	31099
818.321	31239
818.574	31622
818.827	31991
819.079	32403
819.332	32761
819.585	33168
819.838	33662
820.09	33891
820.343	34260
820.595	34229
820.848	34458
821.1	34563
821.353	34636
821.605	34371
821.857	34647
822.11	34391
822.362	34256
822.614	34306
822.866	34387
823.118	34142
823.37	34420
823.622	34480
823.874	34498
824.126	34694
824.378	34671
824.63	34878
824.882	34802
825.134	34807
825.385	34825
825.637	34761
825.888	34535
826.14	34563
826.392	34300
826.643	34116
826.895	34011
827.146	33778
827.397	33791
827.649	33860
827.9	33735
828.151	33689
828.402	33921
828.653	34197
828.905	34093
829.156	34224
829.407	34040
829.658	33980
829.909	34043
830.159	33939
830.41	33655
830.661	33550
830.912	33368
831.162	33292
831.413	33071
831.664	33031
831.914	33072
832.165	33050
832.415	32938
832.666	32908
832.916	32992
833.167	33029
833.417	32895
833.667	32863
833.917	32659
834.168	32519
834.418	32515
834.668	32402
834.918	32200
835.168	32063
835.418	31973
835.668	31892
835.918	31912
836.167	31802
836.417	31753
836.667	31665
836.917	31607
837.166	31428
837.416	31521
837.666	31574
837.915	31295
838.165	31322
838.414	31145
838.663	30992
838.913	31059
839.162	30905
839.411	30947
839.661	30685
839.91	30656
840.159	30651
840.408	30628
840.657	30590
840.906	30557
841.155	30519
841.404	30522
841.653	30476
841.902	30398
842.15	30436
842.399	30389
842.648	30397
842.897	30343
843.145	30075
843.394	29812
843.642	29746
843.891	29602
844.139	29430
844.388	29328
844.636	29234
844.884	29249
845.133	29088
845.381	29029
845.629	28974
845.877	28995
846.125	28920
846.373	28834
846.621	28609
846.869	28610
847.117	28477
847.365	28332
847.613	28208
847.861	28126
848.108	28062
848.356	27905
848.604	27871
848.851	27915
849.099	28019
849.346	27990
849.594	28064
849.841	28151
850.089	28145
850.336	28172
850.583	28207
850.831	27961
851.078	27668
851.325	27567
851.572	27459
851.819	27310
852.066	26951
852.313	26699
852.56	26343
852.807	26436
853.054	26251
853.301	26250
853.548	26230
853.794	26378
854.041	26546
854.288	26423
854.534	26676
854.781	26609
855.028	26500
855.274	26505
855.52	26187
855.767	26074
856.013	26109
856.26	26312
856.506	25867
856.752	25896
856.998	25722
857.244	25819
857.49	25961
857.736	25947
857.982	25941
858.228	25745
858.474	25665
858.72	25523
858.966	25351
859.212	25174
859.458	24754
859.703	24537
859.949	24350
860.195	24279
860.44	24056
860.686	23947
860.931	23861
861.177	23598
861.422	23768
861.667	23589
861.913	23644
862.158	23729
862.403	23715
862.648	23800
862.893	23793
863.138	23714
863.384	23630
863.629	23727
863.873	23648
864.118	23472
864.363	23326
864.608	23277
864.853	23331
865.098	23151
865.342	23025
865.587	22825
865.832	22847
866.076	22714
866.321	22663
866.565	22559
866.81	22462
867.054	22316
867.298	22342
867.543	22218
867.787	22189
868.031	22131
868.275	22139
868.519	21994
868.764	21947
869.008	21908
869.252	21928
869.496	21724
869.739	21623
869.983	21676
870.227	21616
870.471	21542
870.715	21514
870.958	21583
871.202	21593
871.446	21589
871.689	21569
871.933	21596
872.176	21553
872.42	21631
872.663	21329
872.906	21309
873.15	21296
873.393	21227
873.636	21084
873.879	20851
874.122	20622
874.366	20479
874.609	20323
874.852	20208
875.095	20059
875.337	20028
875.58	19973
875.823	19908
876.066	19829
876.309	19780
876.551	19601
876.794	19472
877.037	19539
877.279	19447
877.522	19430
877.764	19556
878.007	19389
878.249	19453
878.491	19364
878.734	19466
878.976	19343
879.218	19150
879.46	19092
879.702	19087
879.945	18927
880.187	18627
880.429	18522
880.671	18344
880.912	18368
881.154	18383
881.396	18155
881.638	18354
881.88	18160
882.121	18053
882.363	18088
882.605	18065
882.846	17996
883.088	17953
883.329	17870
883.571	17744
883.812	17944
884.053	17966
884.295	18136
884.536	18343
884.777	18098
885.018	17989
885.259	17982
885.5	17814
885.742	18107
885.982	17802
886.223	17710
886.464	17577
886.705	17526
886.946	17453
887.187	17215
887.428	17136
887.668	16951
887.909	16849
888.15	16576
888.39	16506
888.631	16422
888.871	16375
889.111	16186
889.352	16140
889.592	16079
889.833	15867
890.073	15803
890.313	15724
890.553	15575
890.793	15501
891.033	15461
891.273	15325
891.513	15173
891.753	15290
891.993	15212
892.233	15271
892.473	15339
892.713	15159
892.952	15186
893.192	15293
893.432	15183
893.671	15163
893.911	15085
894.15	15014
894.39	14881
894.629	14835
894.869	14631
895.108	14544
895.347	14455
895.587	14462
895.826	14371
896.065	14312
896.304	14399
896.543	14276
896.782	14182
897.021	14224
897.26	14071
897.499	14145
897.738	14063
897.977	13920
898.216	13926
898.454	13756
898.693	13584
898.932	13553
899.17	13461
899.409	13398
899.647	13425
899.886	13306
900.124	13430
900.363	13339
900.601	13366
900.839	13349
901.078	13315
901.316	13330
901.554	13357
901.792	13365
902.03	13291
902.268	13318
902.506	13298
902.744	13143
902.982	13128
903.22	13010
903.458	12860
903.695	12806
903.933	12598
904.171	12429
904.409	12300
904.646	12147
904.884	12059
905.121	11946
905.359	11743
905.596	11778
905.833	11565
906.071	11515
906.308	11583
906.545	11557
906.783	11406
907.02	11441
907.257	11406
907.494	11375
907.731	11369
907.968	11367
908.205	11147
908.442	11155
908.679	11037
908.915	10979
909.152	10905
909.389	10757
909.626	10793
909.862	10645
910.099	10637
910.335	10613
910.572	10488
910.808	10487
911.045	10427
911.281	10373
911.518	10400
911.754	10366
911.99	10271
912.226	10153
912.463	10071
912.699	9983
912.935	9890
913.171	9890
913.407	9720
913.643	9785
913.879	9668
914.114	9554
914.35	9525
914.586	9383
914.822	9274
915.057	9247
915.293	9118
915.529	9022
915.764	9218
916	9096
916.235	9076
916.471	9029
916.706	8909
916.941	9011
917.177	8891
917.412	8930
917.647	8978
917.882	8858
918.117	8898
918.352	8875
918.588	8864
918.823	8699
919.057	8667
919.292	8509
919.527	8518
919.762	8431
919.997	8388
920.232	8196
920.466	8224
920.701	8016
920.935	8055
921.17	7955
921.405	7928
921.639	7943
921.873	7882
922.108	7873
922.342	7841
922.576	7754
922.811	7729
923.045	7778
923.279	7757
923.513	7618
923.747	7640
923.981	7641
924.215	7426
924.449	7444
924.683	7354
924.917	7346
925.151	7350
925.385	7295
925.618	7273
925.852	7257
926.086	7211
926.319	7196
926.553	7235
926.786	7200
927.02	7183
927.253	7226
927.486	7177
927.72	7068
927.953	7164
928.186	7016
928.42	7055
928.653	6995
928.886	6935
929.119	6990
929.352	6887
929.585	6833
929.818	6743
930.051	6802
930.284	6729
930.516	6614
930.749	6582
930.982	6576
931.215	6536
931.447	6418
931.68	6466
931.912	6442
932.145	6503
932.377	6411
932.61	6556
932.842	6341
933.074	6425
933.307	6330
933.539	6432
933.771	6430
934.003	6383
934.236	6439
934.468	6430
934.7	6375
934.932	6339
935.164	6249
935.395	6241
935.627	6275
935.859	6209
936.091	6165
936.323	6171
936.554	6175
936.786	6112
937.017	6038
937.249	6107
937.481	6043
937.712	6040
937.943	5969
938.175	6003
938.406	5953
938.637	6063
938.869	5964
939.1	5980
939.331	5907
939.562	5983
939.793	5915
940.024	5918
940.255	5905
940.486	5783
940.717	5835
940.948	5778
941.179	5683
941.409	5684
941.64	5703
941.871	5717
942.102	5714
942.332	5705
942.563	5743
942.793	5713
943.024	5599
943.254	5683
943.484	5711
943.715	5673
943.945	5677
944.175	5592
944.405	5550
944.636	5610
944.866	5600
945.096	5622
945.326	5480
945.556	5534
945.786	5543
946.016	5491
946.245	5377
946.475	5349
946.705	5335
946.935	5331
947.164	5283
947.394	5210
947.624	5231
947.853	5288
948.083	5160
948.312	5137
948.542	5110
948.771	5070
949	5071
949.23	5059
949.459	5108
949.688	5161
949.917	5070
950.146	5117
950.375	5147
950.604	4998
950.833	5073
951.062	5058
951.291	4986
951.52	4984
951.749	4997
951.978	4946
952.206	4934
952.435	4920
952.664	4930
952.892	4896
953.121	4865
953.349	4905
953.578	4870
953.806	4831
954.035	4736
954.263	4778
954.491	4708
954.719	4740
954.948	4657
955.176	4661
955.404	4575
955.632	4613
955.86	4633
956.088	4572
956.316	4592
956.544	4559
956.772	4509
956.999	4483
957.227	4524
957.455	4392
957.683	4422
957.91	4414
958.138	4332
958.365	4325
958.593	4325
958.82	4257
959.048	4322
959.275	4316
959.502	4280
959.73	4222
959.957	4242
960.184	4295
960.411	4208
960.638	4239
960.865	4211
961.092	4218
961.319	4087
961.546	4263
961.773	4184
962	4139
962.227	4196
962.454	4183
962.68	4086
962.907	4142
963.134	4088
963.36	4079
963.587	4042
963.813	3965
964.04	4009
964.266	3917
964.493	3987
964.719	3994
964.945	3968
965.171	3838
965.398	3819
965.624	3880
965.85	3782
966.076	3774
966.302	3853
966.528	3738
966.754	3832
966.98	3755
967.206	3772
967.431	3718
967.657	3711
967.883	3747
968.109	3720
968.334	3668
968.56	3613
968.785	3643
969.011	3602
969.236	3668
969.462	3572
969.687	3565
969.912	3627
970.138	3641
970.363	3560
970.588	3573
970.813	3514
971.038	3479
971.263	3506
971.488	3485
971.713	3556
971.938	3496
972.163	3389
972.388	3409
972.613	3397
972.838	3389
973.062	3364
973.287	3374
973.512	3263
973.736	3335
973.961	3285
974.185	3261
974.41	3297
974.634	3139
974.858	3194
975.083	3191
975.307	3218
975.531	3128
975.755	3096
975.98	3106
976.204	3047
976.428	3044
976.652	3021
976.876	3011
977.1	3034
977.324	2984
977.547	3035
977.771	3063
977.995	2999
978.219	2898
978.442	3073
978.666	2982
978.89	2967
979.113	2934
979.337	2924
979.56	2906
979.783	2961
980.007	2862
980.23	2892
980.453	2847
980.677	2877
980.9	2901
981.123	2745
981.346	2877
981.569	2812
981.792	2873
982.015	2776
982.238	2723
982.461	2739
982.684	2692
982.907	2680
983.129	2661
983.352	2724
983.575	2682
983.797	2689
984.02	2618
984.242	2631
984.465	2642
984.687	2626
984.91	2645
985.132	2624
985.354	2628
985.577	2572
985.799	2572
986.021	2547
986.243	2507
986.465	2516
986.687	2585
986.909	2600
987.131	2499
987.353	2473
987.575	2484
987.797	2461
988.019	2384
988.241	2458
988.462	2399
988.684	2465
988.906	2545
989.127	2484
989.349	2376
989.57	2437
989.792	2419
990.013	2419
990.234	2466
990.456	2446
990.677	2453
990.898	2359
991.119	2368
991.341	2381
991.562	2301
991.783	2327
992.004	2282
992.225	2248
992.446	2319
992.667	2202
992.887	2296
993.108	2186
993.329	2272
993.55	2253
993.77	2190
993.991	2180
994.212	2195
994.432	2198
994.653	2186
994.873	2175
995.093	2057
995.314	2079
995.534	2145
995.754	2167
995.975	2193
996.195	2084
996.415	2107
996.635	2070
996.855	2133
997.075	2065
997.295	2061
997.515	2054
997.735	2115
997.955	2054
998.174	2078
998.394	1995
998.614	2063
998.834	2024
999.053	2075
999.273	2035
999.492	2088
999.712	2003
999.931	2020
1000.151	2009
1000.37	1996
1000.589	2035
1000.809	1974
1001.028	2061
1001.247	2003
1001.466	1889
1001.685	2036
1001.904	1974
1002.123	1942
1002.342	1954
1002.561	1889
1002.78	1896
1002.999	1976
1003.218	1886
1003.436	1850
1003.655	1926
1003.874	1849
1004.092	1842
1004.311	1906
1004.53	1871
1004.748	1923
1004.966	1834
1005.185	1906
1005.403	1877
1005.622	1863
1005.84	1962
1006.058	1843
1006.276	1853
1006.494	2362
1006.712	1846
1006.931	1893
1007.149	1799
1007.367	1789
1007.584	1804
1007.802	1916
1008.02	1784
1008.238	1907
1008.456	1910
1008.673	1728
1008.891	1852
1009.109	1787
1009.326	1856
1009.544	1938
1009.761	1830
1009.979	1933
1010.196	1944
1010.413	1992
1010.631	2056
1010.848	2089
1011.065	2093
1011.282	2050
1011.5	1989
1011.717	2101
1011.934	2002
1012.151	2050
1012.368	2022
1012.585	1990
1012.801	2029
1013.018	1970
1013.235	1929
1013.452	1959
1013.669	1941
1013.885	1891
1014.102	1990
1014.318	1954
1014.535	1928
1014.751	1920
1014.968	1940
1015.184	1967
1015.401	1836
1015.617	1906
1015.833	1807
1016.049	1832
1016.266	1796
1016.482	1817
1016.698	1742
1016.914	1756
1017.13	1724
1017.346	1713
1017.562	1763
1017.778	1674
1017.993	1676
1018.209	1685
1018.425	1695
1018.641	1673
1018.856	1623
1019.072	1639
1019.288	1694
1019.503	1651
1019.719	1567
1019.934	1595
1020.149	1627
1020.365	1597
1020.58	1532
1020.795	1586
1021.011	1517
1021.226	1492
1021.441	1509
1021.656	1428
1021.871	1366
1022.086	1383
1022.301	1351
1022.516	1349
1022.731	1373
1022.946	1326
1023.16	1288
1023.375	1232
1023.59	1257
1023.804	1202
1024.019	1296
1024.234	1168
1024.448	1198
1024.663	1125
1024.877	1144
1025.092	1157
1025.306	1177
1025.52	1068
1025.734	1109
1025.949	1056
1026.163	1038
1026.377	981
1026.591	1002
1026.805	952
1027.019	929
1027.233	900
1027.447	838
1027.661	950
1027.875	861
1028.088	882
1028.302	815
1028.516	805
1028.73	799
1028.943	787
1029.157	730
1029.37	682
1029.584	0
1029.797	-2
1030.011	-1
1030.224	-3
