Data from QEP037381__508__17-29-17-564.txt Node

Date: Fri Dec 16 17:29:17 EST 2022
User: dcclab
Spectrometer: QEP03738
Trigger mode: 4
Integration Time (sec): 1.000000E1
Scans to average: 1
Electric dark correction enabled: true
Nonlinearity correction enabled: false
Boxcar width: 0
XAxis mode: Wavelengths
Number of Pixels in Spectrum: 1044
>>>>>Begin Spectral Data<<<<<
784.041	11
784.3	2
784.558	-2
784.817	-5
785.075	124188
785.334	21880
785.592	10273
785.851	7094
786.109	5367
786.368	4127
786.626	3311
786.884	2741
787.143	2290
787.401	1894
787.659	1700
787.917	1460
788.175	1326
788.433	1145
788.691	1018
788.949	927
789.207	882
789.465	764
789.723	741
789.98	681
790.238	691
790.496	647
790.753	630
791.011	662
791.268	610
791.526	583
791.783	585
792.041	577
792.298	496
792.556	540
792.813	529
793.07	506
793.327	497
793.584	572
793.841	485
794.099	505
794.356	564
794.613	481
794.869	506
795.126	457
795.383	448
795.64	472
795.897	416
796.153	469
796.41	470
796.667	449
796.923	464
797.18	456
797.436	492
797.693	456
797.949	518
798.206	523
798.462	463
798.718	507
798.974	492
799.231	539
799.487	521
799.743	538
799.999	564
800.255	556
800.511	549
800.767	616
801.023	600
801.279	639
801.534	681
801.79	739
802.046	792
802.302	975
802.557	1116
802.813	1421
803.068	1807
803.324	2559
803.579	3507
803.835	4974
804.09	6915
804.345	9128
804.601	11506
804.856	13887
805.111	15992
805.366	17596
805.621	18803
805.876	19633
806.131	20076
806.386	20328
806.641	20782
806.896	21037
807.151	21437
807.406	21655
807.661	22103
807.915	22444
808.17	22669
808.425	22962
808.679	23057
808.934	23357
809.188	23537
809.443	23837
809.697	24153
809.951	24179
810.206	24283
810.46	24553
810.714	24799
810.968	24967
811.223	25030
811.477	25282
811.731	25439
811.985	25659
812.239	25737
812.493	25859
812.747	25964
813	25920
813.254	26119
813.508	26216
813.762	26246
814.015	26393
814.269	26640
814.522	26712
814.776	27109
815.03	27366
815.283	27727
815.536	28154
815.79	28501
816.043	28870
816.296	29394
816.55	29594
816.803	29827
817.056	30139
817.309	30275
817.562	30513
817.815	30883
818.068	31095
818.321	31435
818.574	31767
818.827	32132
819.079	32569
819.332	32929
819.585	33308
819.838	33846
820.09	33980
820.343	34184
820.595	34487
820.848	34512
821.1	34730
821.353	34722
821.605	34720
821.857	34742
822.11	34569
822.362	34545
822.614	34441
822.866	34363
823.118	34386
823.37	34619
823.622	34645
823.874	34690
824.126	34896
824.378	34836
824.63	34972
824.882	35024
825.134	34922
825.385	34980
825.637	34983
825.888	34753
826.14	34707
826.392	34663
826.643	34246
826.895	34377
827.146	34167
827.397	33967
827.649	34104
827.9	33989
828.151	34136
828.402	34025
828.653	34180
828.905	34253
829.156	34196
829.407	34352
829.658	34168
829.909	34205
830.159	34100
830.41	33877
830.661	33649
830.912	33486
831.162	33363
831.413	33492
831.664	33406
831.914	33163
832.165	33291
832.415	33353
832.666	33321
832.916	33192
833.167	33130
833.417	33230
833.667	33113
833.917	32895
834.168	32864
834.418	32833
834.668	32517
834.918	32508
835.168	32441
835.418	32216
835.668	32264
835.918	32047
836.167	32034
836.417	31956
836.667	31815
836.917	31819
837.166	31601
837.416	31747
837.666	31622
837.915	31657
838.165	31391
838.414	31543
838.663	31245
838.913	31338
839.162	31113
839.411	31101
839.661	30884
839.91	30935
840.159	30816
840.408	30757
840.657	30786
840.906	30703
841.155	30717
841.404	30653
841.653	30730
841.902	30609
842.15	30611
842.399	30688
842.648	30616
842.897	30550
843.145	30214
843.394	30074
843.642	29912
843.891	29900
844.139	29851
844.388	29655
844.636	29455
844.884	29365
845.133	29146
845.381	29209
845.629	29285
845.877	29125
846.125	29176
846.373	29124
846.621	29014
846.869	28818
847.117	28749
847.365	28532
847.613	28454
847.861	28324
848.108	28296
848.356	28145
848.604	27976
848.851	28064
849.099	28143
849.346	28286
849.594	28276
849.841	28354
850.089	28458
850.336	28359
850.583	28334
850.831	28228
851.078	27959
851.325	27811
851.572	27738
851.819	27522
852.066	27188
852.313	26817
852.56	26662
852.807	26527
853.054	26400
853.301	26393
853.548	26398
853.794	26550
854.041	26505
854.288	26675
854.534	26963
854.781	26873
855.028	26744
855.274	26688
855.52	26413
855.767	26222
856.013	26191
856.26	26505
856.506	25995
856.752	25928
856.998	25954
857.244	25898
857.49	26054
857.736	26173
857.982	26096
858.228	25902
858.474	25817
858.72	25780
858.966	25535
859.212	25246
859.458	25002
859.703	24850
859.949	24540
860.195	24476
860.44	24270
860.686	24080
860.931	24088
861.177	23930
861.422	23981
861.667	23904
861.913	23908
862.158	23897
862.403	23992
862.648	23980
862.893	24031
863.138	24035
863.384	23883
863.629	23955
863.873	23875
864.118	23782
864.363	23628
864.608	23554
864.853	23447
865.098	23356
865.342	23156
865.587	23167
865.832	23144
866.076	23022
866.321	22823
866.565	22812
866.81	22622
867.054	22703
867.298	22642
867.543	22538
867.787	22456
868.031	22425
868.275	22284
868.519	22290
868.764	22261
869.008	22146
869.252	22135
869.496	21938
869.739	21901
869.983	21940
870.227	21719
870.471	21790
870.715	21792
870.958	21711
871.202	21723
871.446	21867
871.689	21732
871.933	21786
872.176	21820
872.42	21747
872.663	21689
872.906	21578
873.15	21369
873.393	21353
873.636	21224
873.879	21004
874.122	20892
874.366	20549
874.609	20513
874.852	20370
875.095	20250
875.337	20283
875.58	20058
875.823	20046
876.066	20111
876.309	19946
876.551	19844
876.794	19696
877.037	19768
877.279	19705
877.522	19683
877.764	19687
878.007	19650
878.249	19689
878.491	19482
878.734	19618
878.976	19439
879.218	19438
879.46	19279
879.702	19267
879.945	19053
880.187	18866
880.429	18708
880.671	18657
880.912	18588
881.154	18479
881.396	18394
881.638	18443
881.88	18459
882.121	18417
882.363	18314
882.605	18279
882.846	18251
883.088	18166
883.329	18020
883.571	18094
883.812	17954
884.053	18069
884.295	18153
884.536	18327
884.777	18101
885.018	18126
885.259	17951
885.5	17889
885.742	18143
885.982	17920
886.223	17816
886.464	17734
886.705	17600
886.946	17517
887.187	17415
887.428	17328
887.668	17102
887.909	16917
888.15	16757
888.39	16736
888.631	16674
888.871	16464
889.111	16417
889.352	16348
889.592	16188
889.833	16029
890.073	16013
890.313	15942
890.553	15724
890.793	15740
891.033	15615
891.273	15554
891.513	15489
891.753	15501
891.993	15468
892.233	15436
892.473	15493
892.713	15517
892.952	15362
893.192	15552
893.432	15393
893.671	15440
893.911	15271
894.15	15190
894.39	15145
894.629	14992
894.869	14833
895.108	14825
895.347	14673
895.587	14747
895.826	14622
896.065	14520
896.304	14568
896.543	14519
896.782	14436
897.021	14418
897.26	14306
897.499	14289
897.738	14277
897.977	14138
898.216	13977
898.454	13891
898.693	13778
898.932	13765
899.17	13614
899.409	13615
899.647	13550
899.886	13481
900.124	13530
900.363	13488
900.601	13467
900.839	13461
901.078	13494
901.316	13460
901.554	13588
901.792	13513
902.03	13384
902.268	13398
902.506	13345
902.744	13268
902.982	13246
903.22	13124
903.458	12995
903.695	12900
903.933	12740
904.171	12596
904.409	12475
904.646	12270
904.884	12237
905.121	12101
905.359	11984
905.596	11817
905.833	11753
906.071	11734
906.308	11753
906.545	11611
906.783	11545
907.02	11679
907.257	11509
907.494	11533
907.731	11466
907.968	11428
908.205	11338
908.442	11264
908.679	11265
908.915	11130
909.152	11152
909.389	10934
909.626	10907
909.862	10845
910.099	10768
910.335	10756
910.572	10608
910.808	10617
911.045	10630
911.281	10541
911.518	10589
911.754	10401
911.99	10409
912.226	10422
912.463	10266
912.699	10227
912.935	10118
913.171	10009
913.407	9948
913.643	9908
913.879	9800
914.114	9669
914.35	9600
914.586	9535
914.822	9432
915.057	9478
915.293	9261
915.529	9186
915.764	9299
916	9265
916.235	9143
916.471	9168
916.706	9089
916.941	9089
917.177	9121
917.412	9092
917.647	9094
917.882	8971
918.117	9062
918.352	9000
918.588	8963
918.823	8851
919.057	8790
919.292	8659
919.527	8624
919.762	8560
919.997	8538
920.232	8371
920.466	8328
920.701	8203
920.935	8196
921.17	8147
921.405	8088
921.639	8076
921.873	7995
922.108	8059
922.342	7982
922.576	7935
922.811	7904
923.045	7943
923.279	7844
923.513	7680
923.747	7773
923.981	7735
924.215	7632
924.449	7611
924.683	7478
924.917	7445
925.151	7447
925.385	7390
925.618	7399
925.852	7391
926.086	7271
926.319	7298
926.553	7314
926.786	7277
927.02	7258
927.253	7316
927.486	7287
927.72	7169
927.953	7241
928.186	7183
928.42	7154
928.653	7120
928.886	7099
929.119	7104
929.352	7037
929.585	7009
929.818	6888
930.051	6896
930.284	6882
930.516	6738
930.749	6713
930.982	6739
931.215	6639
931.447	6578
931.68	6523
931.912	6519
932.145	6561
932.377	6559
932.61	6640
932.842	6439
933.074	6537
933.307	6456
933.539	6560
933.771	6533
934.003	6477
934.236	6558
934.468	6539
934.7	6425
934.932	6423
935.164	6382
935.395	6337
935.627	6362
935.859	6378
936.091	6237
936.323	6310
936.554	6318
936.786	6255
937.017	6125
937.249	6182
937.481	6076
937.712	6189
937.943	6117
938.175	6155
938.406	6095
938.637	6149
938.869	6053
939.1	6083
939.331	6009
939.562	6014
939.793	6060
940.024	5989
940.255	5968
940.486	5902
940.717	5882
940.948	5871
941.179	5796
941.409	5809
941.64	5726
941.871	5793
942.102	5742
942.332	5779
942.563	5772
942.793	5820
943.024	5684
943.254	5789
943.484	5757
943.715	5786
943.945	5684
944.175	5678
944.405	5702
944.636	5650
944.866	5720
945.096	5704
945.326	5623
945.556	5637
945.786	5654
946.016	5570
946.245	5539
946.475	5455
946.705	5434
946.935	5424
947.164	5414
947.394	5313
947.624	5342
947.853	5344
948.083	5278
948.312	5258
948.542	5180
948.771	5123
949	5142
949.23	5140
949.459	5165
949.688	5256
949.917	5127
950.146	5158
950.375	5237
950.604	5104
950.833	5174
951.062	5157
951.291	5121
951.52	5048
951.749	5061
951.978	5010
952.206	5019
952.435	4975
952.664	4990
952.892	5019
953.121	4934
953.349	4957
953.578	4947
953.806	4863
954.035	4780
954.263	4881
954.491	4798
954.719	4807
954.948	4749
955.176	4729
955.404	4658
955.632	4721
955.86	4703
956.088	4691
956.316	4649
956.544	4632
956.772	4620
956.999	4546
957.227	4595
957.455	4478
957.683	4505
957.91	4452
958.138	4420
958.365	4400
958.593	4393
958.82	4356
959.048	4416
959.275	4376
959.502	4315
959.73	4314
959.957	4327
960.184	4308
960.411	4283
960.638	4346
960.865	4291
961.092	4292
961.319	4182
961.546	4271
961.773	4316
962	4241
962.227	4273
962.454	4198
962.68	4162
962.907	4165
963.134	4129
963.36	4140
963.587	4144
963.813	4057
964.04	4096
964.266	3991
964.493	4075
964.719	3997
964.945	3997
965.171	3897
965.398	3959
965.624	3952
965.85	3846
966.076	3850
966.302	3861
966.528	3818
966.754	3845
966.98	3819
967.206	3839
967.431	3729
967.657	3778
967.883	3781
968.109	3776
968.334	3677
968.56	3722
968.785	3692
969.011	3645
969.236	3700
969.462	3584
969.687	3643
969.912	3693
970.138	3697
970.363	3563
970.588	3589
970.813	3546
971.038	3547
971.263	3566
971.488	3595
971.713	3587
971.938	3546
972.163	3471
972.388	3503
972.613	3439
972.838	3466
973.062	3438
973.287	3461
973.512	3331
973.736	3399
973.961	3352
974.185	3269
974.41	3338
974.634	3248
974.858	3279
975.083	3259
975.307	3306
975.531	3230
975.755	3178
975.98	3125
976.204	3129
976.428	3093
976.652	3104
976.876	3065
977.1	3063
977.324	3017
977.547	3111
977.771	3086
977.995	3095
978.219	2983
978.442	3114
978.666	3010
978.89	3021
979.113	3014
979.337	2986
979.56	2952
979.783	3050
980.007	2930
980.23	2958
980.453	2910
980.677	2923
980.9	2897
981.123	2834
981.346	2915
981.569	2908
981.792	2907
982.015	2828
982.238	2792
982.461	2793
982.684	2759
982.907	2732
983.129	2714
983.352	2773
983.575	2730
983.797	2732
984.02	2659
984.242	2713
984.465	2655
984.687	2659
984.91	2722
985.132	2668
985.354	2669
985.577	2653
985.799	2632
986.021	2503
986.243	2548
986.465	2567
986.687	2613
986.909	2587
987.131	2575
987.353	2516
987.575	2535
987.797	2514
988.019	2440
988.241	2493
988.462	2457
988.684	2519
988.906	2520
989.127	2514
989.349	2423
989.57	2452
989.792	2460
990.013	2514
990.234	2458
990.456	2494
990.677	2471
990.898	2394
991.119	2359
991.341	2427
991.562	2350
991.783	2397
992.004	2305
992.225	2277
992.446	2305
992.667	2254
992.887	2324
993.108	2233
993.329	2292
993.55	2255
993.77	2202
993.991	2208
994.212	2205
994.432	2215
994.653	2208
994.873	2175
995.093	2099
995.314	2093
995.534	2181
995.754	2189
995.975	2182
996.195	2115
996.415	2138
996.635	2131
996.855	2095
997.075	2091
997.295	2081
997.515	2021
997.735	2113
997.955	2080
998.174	2046
998.394	2026
998.614	2087
998.834	2033
999.053	2062
999.273	2052
999.492	2118
999.712	2056
999.931	1999
1000.151	2062
1000.37	2031
1000.589	2048
1000.809	1970
1001.028	2069
1001.247	1994
1001.466	1903
1001.685	2034
1001.904	1974
1002.123	1943
1002.342	1946
1002.561	1936
1002.78	1957
1002.999	1973
1003.218	1919
1003.436	1882
1003.655	1935
1003.874	1872
1004.092	1882
1004.311	1924
1004.53	1871
1004.748	1959
1004.966	1874
1005.185	1900
1005.403	1887
1005.622	1880
1005.84	1947
1006.058	1878
1006.276	1855
1006.494	2345
1006.712	1848
1006.931	1921
1007.149	1807
1007.367	1835
1007.584	1835
1007.802	1869
1008.02	1824
1008.238	1904
1008.456	1896
1008.673	1730
1008.891	1827
1009.109	1796
1009.326	1841
1009.544	1911
1009.761	1818
1009.979	1906
1010.196	1899
1010.413	1998
1010.631	2003
1010.848	2021
1011.065	2028
1011.282	1927
1011.5	1896
1011.717	2030
1011.934	1926
1012.151	1956
1012.368	1953
1012.585	1863
1012.801	1953
1013.018	1888
1013.235	1853
1013.452	1878
1013.669	1889
1013.885	1842
1014.102	1924
1014.318	1843
1014.535	1842
1014.751	1858
1014.968	1822
1015.184	1864
1015.401	1805
1015.617	1786
1015.833	1743
1016.049	1742
1016.266	1704
1016.482	1734
1016.698	1662
1016.914	1666
1017.13	1645
1017.346	1630
1017.562	1712
1017.778	1637
1017.993	1602
1018.209	1652
1018.425	1621
1018.641	1587
1018.856	1554
1019.072	1586
1019.288	1633
1019.503	1583
1019.719	1469
1019.934	1501
1020.149	1575
1020.365	1540
1020.58	1479
1020.795	1530
1021.011	1474
1021.226	1469
1021.441	1457
1021.656	1399
1021.871	1298
1022.086	1331
1022.301	1326
1022.516	1308
1022.731	1346
1022.946	1258
1023.16	1250
1023.375	1219
1023.59	1203
1023.804	1180
1024.019	1274
1024.234	1144
1024.448	1178
1024.663	1106
1024.877	1118
1025.092	1119
1025.306	1134
1025.52	1030
1025.734	1136
1025.949	1069
1026.163	1025
1026.377	941
1026.591	1026
1026.805	933
1027.019	929
1027.233	888
1027.447	833
1027.661	922
1027.875	872
1028.088	888
1028.302	801
1028.516	783
1028.73	784
1028.943	773
1029.157	720
1029.37	686
1029.584	-1
1029.797	-2
1030.011	-3
1030.224	0
