Data from QEP037381__215__11-30-23-223.txt Node

Date: Fri Apr 28 11:30:23 EDT 2023
User: dcclab
Spectrometer: QEP03738
Trigger mode: 4
Integration Time (sec): 1.000000E1
Scans to average: 1
Electric dark correction enabled: true
Nonlinearity correction enabled: false
Boxcar width: 0
XAxis mode: Wavelengths
Number of Pixels in Spectrum: 1044
>>>>>Begin Spectral Data<<<<<
784.041	14
784.3	3
784.558	-5
784.817	-5
785.075	64321
785.334	12824
785.592	6679
785.851	4723
786.109	3643
786.368	2851
786.626	2330
786.884	1924
787.143	1631
787.401	1351
787.659	1236
787.917	1022
788.175	959
788.433	841
788.691	761
788.949	704
789.207	688
789.465	584
789.723	552
789.98	526
790.238	565
790.496	525
790.753	513
791.011	556
791.268	490
791.526	481
791.783	503
792.041	481
792.298	405
792.556	462
792.813	458
793.07	432
793.327	417
793.584	497
793.841	432
794.099	450
794.356	510
794.613	401
794.869	449
795.126	404
795.383	401
795.64	405
795.897	363
796.153	411
796.41	395
796.667	383
796.923	403
797.18	396
797.436	433
797.693	384
797.949	430
798.206	479
798.462	374
798.718	437
798.974	417
799.231	458
799.487	447
799.743	455
799.999	485
800.255	474
800.511	452
800.767	482
801.023	482
801.279	507
801.534	551
801.79	588
802.046	626
802.302	743
802.557	855
802.813	1062
803.068	1324
803.324	1864
803.579	2537
803.835	3492
804.09	4719
804.345	5915
804.601	7287
804.856	8400
805.111	9228
805.366	9838
805.621	10288
805.876	10680
806.131	10810
806.386	11030
806.641	11126
806.896	11353
807.151	11508
807.406	11600
807.661	11888
807.915	11976
808.17	12216
808.425	12415
808.679	12453
808.934	12679
809.188	12805
809.443	12969
809.697	13124
809.951	13170
810.206	13236
810.46	13425
810.714	13429
810.968	13681
811.223	13643
811.477	13816
811.731	13872
811.985	13913
812.239	13938
812.493	14068
812.747	14017
813	14061
813.254	14198
813.508	14250
813.762	14230
814.015	14356
814.269	14428
814.522	14571
814.776	14703
815.03	14837
815.283	15029
815.536	15209
815.79	15383
816.043	15592
816.296	15916
816.55	15990
816.803	16197
817.056	16499
817.309	16591
817.562	16772
817.815	16977
818.068	17098
818.321	17315
818.574	17498
818.827	17766
819.079	17891
819.332	18393
819.585	18536
819.838	18682
820.09	18806
820.343	19008
820.595	19044
820.848	19122
821.1	19177
821.353	19106
821.605	19100
821.857	19081
822.11	18952
822.362	18939
822.614	18904
822.866	18953
823.118	18858
823.37	19126
823.622	19022
823.874	19175
824.126	19307
824.378	19137
824.63	19204
824.882	19378
825.134	19164
825.385	19195
825.637	19019
825.888	18942
826.14	19007
826.392	18825
826.643	18712
826.895	18731
827.146	18647
827.397	18573
827.649	18741
827.9	18555
828.151	18583
828.402	18677
828.653	18676
828.905	18674
829.156	18831
829.407	18784
829.658	18758
829.909	18897
830.159	18985
830.41	18781
830.661	18569
830.912	18519
831.162	18342
831.413	18373
831.664	18499
831.914	18402
832.165	18401
832.415	18226
832.666	18379
832.916	18392
833.167	18271
833.417	18189
833.667	18130
833.917	18016
834.168	18055
834.418	18073
834.668	17928
834.918	17880
835.168	17773
835.418	17724
835.668	17591
835.918	17514
836.167	17554
836.417	17580
836.667	17453
836.917	17460
837.166	17440
837.416	17523
837.666	17422
837.915	17322
838.165	17435
838.414	17229
838.663	17225
838.913	17209
839.162	17276
839.411	17213
839.661	17088
839.91	17104
840.159	17191
840.408	17175
840.657	17114
840.906	17203
841.155	17151
841.404	17030
841.653	17097
841.902	17101
842.15	17111
842.399	17211
842.648	17189
842.897	17098
843.145	16926
843.394	16850
843.642	16707
843.891	16729
844.139	16573
844.388	16350
844.636	16291
844.884	16341
845.133	16251
845.381	16221
845.629	16246
845.877	16200
846.125	16269
846.373	16260
846.621	16095
846.869	16161
847.117	16065
847.365	15967
847.613	15896
847.861	15837
848.108	15856
848.356	15854
848.604	15766
848.851	15826
849.099	15838
849.346	15778
849.594	15988
849.841	15983
850.089	15971
850.336	16023
850.583	16054
850.831	15917
851.078	15785
851.325	15811
851.572	15911
851.819	15631
852.066	15276
852.313	14988
852.56	14898
852.807	14898
853.054	14833
853.301	14876
853.548	14968
853.794	15031
854.041	15023
854.288	15013
854.534	15228
854.781	15205
855.028	15138
855.274	15207
855.52	15127
855.767	15173
856.013	15226
856.26	15426
856.506	14896
856.752	14943
856.998	14948
857.244	14879
857.49	15003
857.736	14944
857.982	14979
858.228	14937
858.474	14751
858.72	14672
858.966	14511
859.212	14224
859.458	14206
859.703	14005
859.949	13855
860.195	13785
860.44	13769
860.686	13715
860.931	13864
861.177	13681
861.422	13543
861.667	13329
861.913	13384
862.158	13341
862.403	13528
862.648	13388
862.893	13499
863.138	13511
863.384	13371
863.629	13398
863.873	13302
864.118	13331
864.363	13161
864.608	13142
864.853	13070
865.098	13038
865.342	12934
865.587	12839
865.832	12968
866.076	12832
866.321	12718
866.565	12870
866.81	12716
867.054	12681
867.298	12695
867.543	12606
867.787	12693
868.031	12638
868.275	12642
868.519	12524
868.764	12599
869.008	12583
869.252	12574
869.496	12567
869.739	12571
869.983	12644
870.227	12618
870.471	12544
870.715	12687
870.958	12714
871.202	12749
871.446	12715
871.689	12733
871.933	12756
872.176	12739
872.42	12656
872.663	12666
872.906	12686
873.15	12724
873.393	12642
873.636	12703
873.879	12559
874.122	12391
874.366	12185
874.609	12009
874.852	11916
875.095	11723
875.337	11681
875.58	11654
875.823	11607
876.066	11688
876.309	11683
876.551	11431
876.794	11457
877.037	11435
877.279	11323
877.522	11325
877.764	11334
878.007	11227
878.249	11251
878.491	11262
878.734	11249
878.976	11149
879.218	11034
879.46	11111
879.702	10974
879.945	10764
880.187	10667
880.429	10630
880.671	10520
880.912	10553
881.154	10527
881.396	10417
881.638	10465
881.88	10442
882.121	10419
882.363	10414
882.605	10485
882.846	10472
883.088	10478
883.329	10536
883.571	10624
883.812	10884
884.053	11219
884.295	11465
884.536	11726
884.777	11586
885.018	11422
885.259	11344
885.5	11135
885.742	11305
885.982	11172
886.223	10967
886.464	10815
886.705	10625
886.946	10545
887.187	10235
887.428	10161
887.668	9843
887.909	9713
888.15	9587
888.39	9489
888.631	9446
888.871	9400
889.111	9287
889.352	9160
889.592	9106
889.833	9067
890.073	8964
890.313	8925
890.553	8835
890.793	8823
891.033	8753
891.273	8715
891.513	8734
891.753	8716
891.993	8693
892.233	8636
892.473	8781
892.713	8702
892.952	8684
893.192	8728
893.432	8685
893.671	8677
893.911	8635
894.15	8566
894.39	8507
894.629	8425
894.869	8338
895.108	8336
895.347	8290
895.587	8244
895.826	8203
896.065	8177
896.304	8266
896.543	8262
896.782	8179
897.021	8145
897.26	8099
897.499	8219
897.738	8152
897.977	8054
898.216	8016
898.454	7934
898.693	7903
898.932	7888
899.17	7848
899.409	7853
899.647	7806
899.886	7786
900.124	7808
900.363	7799
900.601	7938
900.839	7920
901.078	7985
901.316	8014
901.554	8101
901.792	8192
902.03	8149
902.268	8122
902.506	8096
902.744	8030
902.982	7977
903.22	7733
903.458	7591
903.695	7540
903.933	7441
904.171	7269
904.409	7166
904.646	7122
904.884	6955
905.121	6935
905.359	6745
905.596	6760
905.833	6671
906.071	6677
906.308	6708
906.545	6622
906.783	6495
907.02	6560
907.257	6542
907.494	6594
907.731	6501
907.968	6502
908.205	6459
908.442	6378
908.679	6322
908.915	6301
909.152	6296
909.389	6189
909.626	6214
909.862	6101
910.099	6099
910.335	6073
910.572	5987
910.808	5988
911.045	5978
911.281	5912
911.518	6042
911.754	5948
911.99	5828
912.226	5781
912.463	5710
912.699	5746
912.935	5680
913.171	5666
913.407	5582
913.643	5615
913.879	5525
914.114	5425
914.35	5435
914.586	5388
914.822	5397
915.057	5382
915.293	5221
915.529	5224
915.764	5304
916	5242
916.235	5222
916.471	5227
916.706	5164
916.941	5154
917.177	5178
917.412	5154
917.647	5194
917.882	5025
918.117	5189
918.352	5113
918.588	5120
918.823	5005
919.057	4980
919.292	4846
919.527	4944
919.762	4872
919.997	4845
920.232	4777
920.466	4767
920.701	4625
920.935	4648
921.17	4655
921.405	4578
921.639	4649
921.873	4574
922.108	4575
922.342	4553
922.576	4484
922.811	4489
923.045	4542
923.279	4539
923.513	4395
923.747	4459
923.981	4405
924.215	4343
924.449	4348
924.683	4300
924.917	4258
925.151	4259
925.385	4349
925.618	4268
925.852	4280
926.086	4200
926.319	4244
926.553	4246
926.786	4253
927.02	4171
927.253	4256
927.486	4238
927.72	4160
927.953	4208
928.186	4167
928.42	4134
928.653	4090
928.886	4125
929.119	4126
929.352	4077
929.585	4073
929.818	3988
930.051	3993
930.284	3943
930.516	3901
930.749	3878
930.982	3913
931.215	3902
931.447	3811
931.68	3820
931.912	3809
932.145	3817
932.377	3842
932.61	3971
932.842	3769
933.074	3842
933.307	3765
933.539	3845
933.771	3833
934.003	3787
934.236	3855
934.468	3878
934.7	3757
934.932	3778
935.164	3739
935.395	3717
935.627	3775
935.859	3738
936.091	3666
936.323	3708
936.554	3757
936.786	3687
937.017	3618
937.249	3652
937.481	3574
937.712	3648
937.943	3619
938.175	3572
938.406	3621
938.637	3663
938.869	3542
939.1	3573
939.331	3559
939.562	3583
939.793	3559
940.024	3573
940.255	3575
940.486	3532
940.717	3507
940.948	3489
941.179	3426
941.409	3463
941.64	3457
941.871	3500
942.102	3439
942.332	3458
942.563	3498
942.793	3432
943.024	3419
943.254	3407
943.484	3445
943.715	3465
943.945	3421
944.175	3410
944.405	3329
944.636	3377
944.866	3414
945.096	3432
945.326	3323
945.556	3421
945.786	3361
946.016	3330
946.245	3261
946.475	3311
946.705	3258
946.935	3280
947.164	3236
947.394	3201
947.624	3194
947.853	3243
948.083	3221
948.312	3166
948.542	3122
948.771	3080
949	3131
949.23	3119
949.459	3125
949.688	3191
949.917	3141
950.146	3138
950.375	3209
950.604	3097
950.833	3161
951.062	3189
951.291	3074
951.52	3093
951.749	3079
951.978	3031
952.206	3035
952.435	3065
952.664	3076
952.892	3049
953.121	3057
953.349	3070
953.578	3031
953.806	2985
954.035	2951
954.263	2948
954.491	2901
954.719	2971
954.948	2909
955.176	2856
955.404	2844
955.632	2889
955.86	2909
956.088	2863
956.316	2871
956.544	2891
956.772	2830
956.999	2782
957.227	2860
957.455	2796
957.683	2789
957.91	2771
958.138	2741
958.365	2701
958.593	2763
958.82	2665
959.048	2731
959.275	2713
959.502	2671
959.73	2673
959.957	2685
960.184	2731
960.411	2629
960.638	2728
960.865	2678
961.092	2714
961.319	2608
961.546	2679
961.773	2712
962	2638
962.227	2665
962.454	2639
962.68	2651
962.907	2629
963.134	2581
963.36	2593
963.587	2588
963.813	2530
964.04	2601
964.266	2510
964.493	2543
964.719	2546
964.945	2553
965.171	2470
965.398	2502
965.624	2543
965.85	2457
966.076	2423
966.302	2464
966.528	2394
966.754	2437
966.98	2440
967.206	2453
967.431	2397
967.657	2447
967.883	2411
968.109	2416
968.334	2351
968.56	2331
968.785	2367
969.011	2294
969.236	2350
969.462	2307
969.687	2326
969.912	2366
970.138	2371
970.363	2310
970.588	2338
970.813	2294
971.038	2277
971.263	2297
971.488	2301
971.713	2315
971.938	2296
972.163	2213
972.388	2223
972.613	2218
972.838	2218
973.062	2199
973.287	2196
973.512	2135
973.736	2196
973.961	2196
974.185	2134
974.41	2153
974.634	2104
974.858	2074
975.083	2128
975.307	2165
975.531	2091
975.755	2015
975.98	2048
976.204	1993
976.428	1986
976.652	2006
976.876	1973
977.1	1996
977.324	1969
977.547	2012
977.771	2045
977.995	2006
978.219	1922
978.442	2028
978.666	2005
978.89	1992
979.113	1957
979.337	1959
979.56	1925
979.783	2008
980.007	1886
980.23	1939
980.453	1915
980.677	1934
980.9	1920
981.123	1837
981.346	1927
981.569	1889
981.792	1950
982.015	1890
982.238	1831
982.461	1856
982.684	1831
982.907	1806
983.129	1766
983.352	1877
983.575	1846
983.797	1837
984.02	1791
984.242	1762
984.465	1816
984.687	1814
984.91	1833
985.132	1814
985.354	1818
985.577	1773
985.799	1780
986.021	1699
986.243	1722
986.465	1735
986.687	1783
986.909	1828
987.131	1739
987.353	1728
987.575	1757
987.797	1709
988.019	1649
988.241	1724
988.462	1668
988.684	1756
988.906	1734
989.127	1792
989.349	1670
989.57	1708
989.792	1754
990.013	1755
990.234	1763
990.456	1753
990.677	1741
990.898	1679
991.119	1662
991.341	1713
991.562	1631
991.783	1661
992.004	1650
992.225	1578
992.446	1643
992.667	1585
992.887	1637
993.108	1549
993.329	1668
993.55	1650
993.77	1558
993.991	1532
994.212	1596
994.432	1606
994.653	1578
994.873	1577
995.093	1476
995.314	1531
995.534	1599
995.754	1600
995.975	1647
996.195	1504
996.415	1600
996.635	1534
996.855	1600
997.075	1549
997.295	1555
997.515	1503
997.735	1579
997.955	1555
998.174	1525
998.394	1516
998.614	1566
998.834	1514
999.053	1579
999.273	1517
999.492	1586
999.712	1530
999.931	1489
1000.151	1538
1000.37	1513
1000.589	1580
1000.809	1477
1001.028	1592
1001.247	1523
1001.466	1424
1001.685	1593
1001.904	1512
1002.123	1480
1002.342	1491
1002.561	1457
1002.78	1495
1002.999	1533
1003.218	1455
1003.436	1439
1003.655	1494
1003.874	1428
1004.092	1456
1004.311	1474
1004.53	1467
1004.748	1515
1004.966	1438
1005.185	1530
1005.403	1501
1005.622	1478
1005.84	1536
1006.058	1478
1006.276	1476
1006.494	1847
1006.712	1466
1006.931	1551
1007.149	1438
1007.367	1460
1007.584	1519
1007.802	1534
1008.02	1492
1008.238	1601
1008.456	1611
1008.673	1512
1008.891	1607
1009.109	1573
1009.326	1629
1009.544	1741
1009.761	1655
1009.979	1786
1010.196	1843
1010.413	1940
1010.631	2033
1010.848	2073
1011.065	2086
1011.282	2056
1011.5	1994
1011.717	2036
1011.934	2031
1012.151	2052
1012.368	2014
1012.585	1979
1012.801	2020
1013.018	1998
1013.235	1976
1013.452	1985
1013.669	2015
1013.885	2050
1014.102	2061
1014.318	2030
1014.535	1973
1014.751	2020
1014.968	1998
1015.184	2011
1015.401	1910
1015.617	1934
1015.833	1855
1016.049	1850
1016.266	1872
1016.482	1847
1016.698	1773
1016.914	1800
1017.13	1774
1017.346	1770
1017.562	1811
1017.778	1703
1017.993	1704
1018.209	1741
1018.425	1737
1018.641	1722
1018.856	1678
1019.072	1705
1019.288	1760
1019.503	1693
1019.719	1624
1019.934	1631
1020.149	1711
1020.365	1614
1020.58	1573
1020.795	1591
1021.011	1511
1021.226	1484
1021.441	1486
1021.656	1422
1021.871	1343
1022.086	1327
1022.301	1317
1022.516	1318
1022.731	1337
1022.946	1254
1023.16	1239
1023.375	1207
1023.59	1164
1023.804	1126
1024.019	1238
1024.234	1108
1024.448	1119
1024.663	1054
1024.877	1056
1025.092	1075
1025.306	1070
1025.52	964
1025.734	1049
1025.949	965
1026.163	926
1026.377	882
1026.591	928
1026.805	862
1027.019	846
1027.233	821
1027.447	786
1027.661	865
1027.875	803
1028.088	823
1028.302	735
1028.516	723
1028.73	720
1028.943	714
1029.157	660
1029.37	631
1029.584	-4
1029.797	-2
1030.011	-1
1030.224	0
