Data from QEP037381__23__14-15-43-765.txt Node

Date: Wed Dec 21 14:15:43 EST 2022
User: dcclab
Spectrometer: QEP03738
Trigger mode: 4
Integration Time (sec): 1.000000E1
Scans to average: 1
Electric dark correction enabled: true
Nonlinearity correction enabled: false
Boxcar width: 0
XAxis mode: Wavelengths
Number of Pixels in Spectrum: 1044
>>>>>Begin Spectral Data<<<<<
784.041	15
784.3	-1
784.558	-3
784.817	-3
785.075	98936
785.334	17110
785.592	7937
785.851	5509
786.109	4114
786.368	3225
786.626	2574
786.884	2127
787.143	1810
787.401	1470
787.659	1337
787.917	1158
788.175	1064
788.433	930
788.691	819
788.949	789
789.207	751
789.465	650
789.723	615
789.98	570
790.238	601
790.496	575
790.753	560
791.011	621
791.268	537
791.526	518
791.783	532
792.041	528
792.298	443
792.556	485
792.813	478
793.07	462
793.327	458
793.584	519
793.841	440
794.099	465
794.356	518
794.613	437
794.869	467
795.126	442
795.383	409
795.64	426
795.897	395
796.153	449
796.41	415
796.667	421
796.923	420
797.18	430
797.436	456
797.693	417
797.949	460
798.206	488
798.462	409
798.718	485
798.974	439
799.231	479
799.487	476
799.743	486
799.999	495
800.255	517
800.511	495
800.767	529
801.023	519
801.279	540
801.534	585
801.79	643
802.046	666
802.302	805
802.557	916
802.813	1157
803.068	1378
803.324	1901
803.579	2571
803.835	3544
804.09	4860
804.345	6286
804.601	7952
804.856	9591
805.111	11148
805.366	12277
805.621	13093
805.876	13718
806.131	14024
806.386	14322
806.641	14551
806.896	14886
807.151	15147
807.406	15415
807.661	15650
807.915	15852
808.17	16147
808.425	16272
808.679	16304
808.934	16636
809.188	16736
809.443	16950
809.697	17182
809.951	17225
810.206	17249
810.46	17500
810.714	17601
810.968	17901
811.223	17939
811.477	18203
811.731	18287
811.985	18318
812.239	18451
812.493	18476
812.747	18698
813	18487
813.254	18761
813.508	18881
813.762	18847
814.015	18929
814.269	19213
814.522	19320
814.776	19418
815.03	19760
815.283	19961
815.536	20245
815.79	20638
816.043	20829
816.296	21211
816.55	21399
816.803	21643
817.056	22072
817.309	22210
817.562	22329
817.815	22613
818.068	22746
818.321	22969
818.574	23145
818.827	23509
819.079	23727
819.332	24324
819.585	24551
819.838	24868
820.09	24931
820.343	25102
820.595	25064
820.848	25463
821.1	25522
821.353	25532
821.605	25539
821.857	25481
822.11	25321
822.362	25335
822.614	25223
822.866	25214
823.118	25230
823.37	25477
823.622	25412
823.874	25591
824.126	25733
824.378	25702
824.63	25804
824.882	25921
825.134	25769
825.385	25879
825.637	25706
825.888	25593
826.14	25607
826.392	25494
826.643	25396
826.895	25238
827.146	25193
827.397	25177
827.649	25251
827.9	25093
828.151	25194
828.402	25275
828.653	25354
828.905	25386
829.156	25611
829.407	25547
829.658	25651
829.909	25786
830.159	25806
830.41	25710
830.661	25464
830.912	25164
831.162	25163
831.413	25103
831.664	25172
831.914	25164
832.165	25188
832.415	25136
832.666	25142
832.916	25159
833.167	25065
833.417	25181
833.667	25113
833.917	24970
834.168	25030
834.418	24960
834.668	24869
834.918	24679
835.168	24523
835.418	24421
835.668	24519
835.918	24493
836.167	24452
836.417	24237
836.667	24398
836.917	24381
837.166	24311
837.416	24410
837.666	24444
837.915	24425
838.165	24450
838.414	24215
838.663	24142
838.913	24324
839.162	24156
839.411	24259
839.661	24198
839.91	24107
840.159	24090
840.408	24117
840.657	24103
840.906	24161
841.155	24204
841.404	24040
841.653	24236
841.902	24195
842.15	24318
842.399	24255
842.648	24331
842.897	24209
843.145	24036
843.394	23868
843.642	23789
843.891	23566
844.139	23539
844.388	23336
844.636	23273
844.884	23400
845.133	23286
845.381	23225
845.629	23267
845.877	23214
846.125	23227
846.373	23250
846.621	23171
846.869	23132
847.117	22907
847.365	22846
847.613	22772
847.861	22722
848.108	22751
848.356	22652
848.604	22629
848.851	22619
849.099	22686
849.346	22741
849.594	23040
849.841	22957
850.089	23005
850.336	23123
850.583	23183
850.831	22989
851.078	22889
851.325	22882
851.572	22916
851.819	22713
852.066	22239
852.313	22010
852.56	21829
852.807	21699
853.054	21674
853.301	21661
853.548	21796
853.794	21866
854.041	21976
854.288	21958
854.534	22252
854.781	22220
855.028	22113
855.274	22206
855.52	22158
855.767	22056
856.013	22245
856.26	22532
856.506	21936
856.752	21867
856.998	21860
857.244	21944
857.49	22121
857.736	22158
857.982	22205
858.228	22107
858.474	21766
858.72	21642
858.966	21460
859.212	21321
859.458	21123
859.703	20776
859.949	20548
860.195	20482
860.44	20492
860.686	20354
860.931	20389
861.177	20266
861.422	20030
861.667	20008
861.913	20074
862.158	19921
862.403	20094
862.648	20140
862.893	20227
863.138	20123
863.384	20052
863.629	20100
863.873	20037
864.118	19991
864.363	19911
864.608	19835
864.853	19874
865.098	19605
865.342	19606
865.587	19535
865.832	19581
866.076	19526
866.321	19418
866.565	19492
866.81	19244
867.054	19232
867.298	19326
867.543	19203
867.787	19210
868.031	19088
868.275	19141
868.519	19106
868.764	19160
869.008	18995
869.252	19037
869.496	19039
869.739	18934
869.983	19061
870.227	19007
870.471	18989
870.715	19137
870.958	19291
871.202	19204
871.446	19339
871.689	19256
871.933	19230
872.176	19266
872.42	19282
872.663	19267
872.906	19223
873.15	19234
873.393	19337
873.636	19406
873.879	19212
874.122	18968
874.366	18646
874.609	18385
874.852	18200
875.095	18102
875.337	17964
875.58	17909
875.823	17907
876.066	17886
876.309	17737
876.551	17606
876.794	17467
877.037	17570
877.279	17350
877.522	17395
877.764	17430
878.007	17338
878.249	17426
878.491	17266
878.734	17341
878.976	17255
879.218	17057
879.46	17050
879.702	17015
879.945	16759
880.187	16670
880.429	16608
880.671	16483
880.912	16478
881.154	16343
881.396	16333
881.638	16468
881.88	16380
882.121	16301
882.363	16339
882.605	16299
882.846	16269
883.088	16275
883.329	16336
883.571	16503
883.812	16798
884.053	17172
884.295	17851
884.536	18104
884.777	17935
885.018	17623
885.259	17549
885.5	17423
885.742	17653
885.982	17333
886.223	17153
886.464	16988
886.705	16712
886.946	16488
887.187	16132
887.428	16004
887.668	15613
887.909	15442
888.15	15226
888.39	15143
888.631	14968
888.871	14882
889.111	14692
889.352	14575
889.592	14467
889.833	14418
890.073	14390
890.313	14270
890.553	14144
890.793	14030
891.033	14017
891.273	13938
891.513	13917
891.753	13894
891.993	13814
892.233	13787
892.473	13940
892.713	13924
892.952	13859
893.192	14000
893.432	13716
893.671	13885
893.911	13725
894.15	13748
894.39	13550
894.629	13538
894.869	13538
895.108	13347
895.347	13377
895.587	13345
895.826	13274
896.065	13327
896.304	13279
896.543	13301
896.782	13128
897.021	13112
897.26	13043
897.499	13151
897.738	13129
897.977	13015
898.216	12927
898.454	12794
898.693	12772
898.932	12732
899.17	12707
899.409	12612
899.647	12653
899.886	12644
900.124	12683
900.363	12631
900.601	12763
900.839	12727
901.078	12856
901.316	12906
901.554	13065
901.792	13123
902.03	13006
902.268	13038
902.506	13118
902.744	12913
902.982	12885
903.22	12571
903.458	12486
903.695	12212
903.933	12021
904.171	11776
904.409	11659
904.646	11546
904.884	11333
905.121	11282
905.359	11068
905.596	11079
905.833	10942
906.071	10886
906.308	10846
906.545	10848
906.783	10737
907.02	10758
907.257	10736
907.494	10682
907.731	10639
907.968	10662
908.205	10456
908.442	10482
908.679	10435
908.915	10386
909.152	10333
909.389	10100
909.626	10157
909.862	10094
910.099	10057
910.335	10059
910.572	9912
910.808	9936
911.045	9907
911.281	9779
911.518	9849
911.754	9693
911.99	9691
912.226	9657
912.463	9498
912.699	9467
912.935	9402
913.171	9347
913.407	9269
913.643	9247
913.879	9115
914.114	9086
914.35	8896
914.586	8898
914.822	8802
915.057	8866
915.293	8684
915.529	8600
915.764	8721
916	8634
916.235	8604
916.471	8642
916.706	8547
916.941	8505
917.177	8571
917.412	8596
917.647	8611
917.882	8469
918.117	8462
918.352	8498
918.588	8490
918.823	8371
919.057	8257
919.292	8158
919.527	8212
919.762	8097
919.997	8017
920.232	7893
920.466	7978
920.701	7780
920.935	7728
921.17	7694
921.405	7687
921.639	7690
921.873	7560
922.108	7628
922.342	7652
922.576	7530
922.811	7538
923.045	7518
923.279	7549
923.513	7353
923.747	7391
923.981	7346
924.215	7315
924.449	7235
924.683	7190
924.917	7190
925.151	7137
925.385	7145
925.618	7130
925.852	7060
926.086	7031
926.319	7099
926.553	7061
926.786	7097
927.02	6998
927.253	7103
927.486	7058
927.72	6963
927.953	7020
928.186	6911
928.42	6980
928.653	6811
928.886	6881
929.119	6889
929.352	6789
929.585	6821
929.818	6712
930.051	6682
930.284	6637
930.516	6530
930.749	6456
930.982	6538
931.215	6451
931.447	6420
931.68	6384
931.912	6378
932.145	6342
932.377	6441
932.61	6487
932.842	6386
933.074	6387
933.307	6392
933.539	6434
933.771	6398
934.003	6326
934.236	6432
934.468	6414
934.7	6290
934.932	6382
935.164	6277
935.395	6264
935.627	6276
935.859	6298
936.091	6209
936.323	6247
936.554	6241
936.786	6240
937.017	6095
937.249	6101
937.481	6005
937.712	6138
937.943	6073
938.175	6041
938.406	6007
938.637	6056
938.869	5902
939.1	6031
939.331	5935
939.562	6033
939.793	5951
940.024	5938
940.255	5939
940.486	5925
940.717	5802
940.948	5848
941.179	5807
941.409	5808
941.64	5746
941.871	5751
942.102	5784
942.332	5785
942.563	5775
942.793	5783
943.024	5709
943.254	5745
943.484	5781
943.715	5727
943.945	5762
944.175	5716
944.405	5652
944.636	5694
944.866	5664
945.096	5686
945.326	5599
945.556	5725
945.786	5655
946.016	5540
946.245	5517
946.475	5503
946.705	5500
946.935	5413
947.164	5415
947.394	5401
947.624	5446
947.853	5438
948.083	5347
948.312	5318
948.542	5273
948.771	5194
949	5212
949.23	5206
949.459	5227
949.688	5314
949.917	5289
950.146	5250
950.375	5296
950.604	5223
950.833	5278
951.062	5243
951.291	5183
951.52	5171
951.749	5138
951.978	5097
952.206	5127
952.435	5144
952.664	5148
952.892	5113
953.121	5042
953.349	5092
953.578	5100
953.806	5016
954.035	4942
954.263	5005
954.491	4901
954.719	4994
954.948	4882
955.176	4875
955.404	4777
955.632	4862
955.86	4815
956.088	4796
956.316	4778
956.544	4802
956.772	4770
956.999	4713
957.227	4729
957.455	4578
957.683	4596
957.91	4595
958.138	4546
958.365	4577
958.593	4530
958.82	4481
959.048	4539
959.275	4527
959.502	4464
959.73	4464
959.957	4490
960.184	4514
960.411	4444
960.638	4525
960.865	4459
961.092	4455
961.319	4349
961.546	4479
961.773	4431
962	4396
962.227	4415
962.454	4372
962.68	4347
962.907	4404
963.134	4287
963.36	4250
963.587	4303
963.813	4232
964.04	4233
964.266	4130
964.493	4215
964.719	4223
964.945	4168
965.171	4086
965.398	4133
965.624	4126
965.85	4027
966.076	4042
966.302	4091
966.528	4030
966.754	4030
966.98	3989
967.206	3996
967.431	3954
967.657	4013
967.883	3944
968.109	3908
968.334	3866
968.56	3861
968.785	3896
969.011	3840
969.236	3910
969.462	3821
969.687	3842
969.912	3876
970.138	3863
970.363	3794
970.588	3829
970.813	3743
971.038	3732
971.263	3724
971.488	3759
971.713	3784
971.938	3763
972.163	3657
972.388	3650
972.613	3607
972.838	3622
973.062	3638
973.287	3654
973.512	3504
973.736	3585
973.961	3523
974.185	3511
974.41	3531
974.634	3427
974.858	3433
975.083	3482
975.307	3461
975.531	3387
975.755	3349
975.98	3336
976.204	3290
976.428	3284
976.652	3325
976.876	3238
977.1	3275
977.324	3268
977.547	3268
977.771	3274
977.995	3215
978.219	3174
978.442	3302
978.666	3282
978.89	3212
979.113	3155
979.337	3151
979.56	3137
979.783	3235
980.007	3101
980.23	3155
980.453	3103
980.677	3135
980.9	3102
981.123	3012
981.346	3092
981.569	3072
981.792	3119
982.015	3030
982.238	2977
982.461	2999
982.684	2956
982.907	2927
983.129	2921
983.352	2968
983.575	2935
983.797	2939
984.02	2884
984.242	2831
984.465	2872
984.687	2870
984.91	2892
985.132	2853
985.354	2876
985.577	2849
985.799	2826
986.021	2724
986.243	2763
986.465	2760
986.687	2812
986.909	2829
987.131	2775
987.353	2712
987.575	2766
987.797	2697
988.019	2657
988.241	2688
988.462	2705
988.684	2722
988.906	2712
989.127	2774
989.349	2644
989.57	2673
989.792	2672
990.013	2681
990.234	2717
990.456	2754
990.677	2679
990.898	2627
991.119	2616
991.341	2643
991.562	2560
991.783	2622
992.004	2530
992.225	2511
992.446	2573
992.667	2451
992.887	2566
993.108	2449
993.329	2517
993.55	2497
993.77	2415
993.991	2438
994.212	2458
994.432	2418
994.653	2438
994.873	2435
995.093	2312
995.314	2352
995.534	2412
995.754	2430
995.975	2423
996.195	2331
996.415	2396
996.635	2376
996.855	2420
997.075	2353
997.295	2347
997.515	2351
997.735	2430
997.955	2385
998.174	2355
998.394	2318
998.614	2388
998.834	2312
999.053	2380
999.273	2298
999.492	2345
999.712	2267
999.931	2260
1000.151	2289
1000.37	2268
1000.589	2286
1000.809	2224
1001.028	2319
1001.247	2199
1001.466	2125
1001.685	2282
1001.904	2207
1002.123	2145
1002.342	2180
1002.561	2114
1002.78	2161
1002.999	2179
1003.218	2128
1003.436	2131
1003.655	2155
1003.874	2091
1004.092	2120
1004.311	2155
1004.53	2088
1004.748	2181
1004.966	2096
1005.185	2133
1005.403	2108
1005.622	2103
1005.84	2158
1006.058	2069
1006.276	2083
1006.494	2561
1006.712	2095
1006.931	2159
1007.149	2124
1007.367	2085
1007.584	2136
1007.802	2184
1008.02	2149
1008.238	2282
1008.456	2258
1008.673	2153
1008.891	2290
1009.109	2268
1009.326	2346
1009.544	2510
1009.761	2425
1009.979	2590
1010.196	2687
1010.413	2874
1010.631	3000
1010.848	3093
1011.065	3130
1011.282	3107
1011.5	3045
1011.717	3114
1011.934	3041
1012.151	3080
1012.368	3023
1012.585	2989
1012.801	3018
1013.018	3040
1013.235	2943
1013.452	3016
1013.669	3050
1013.885	3043
1014.102	3082
1014.318	3074
1014.535	3030
1014.751	3050
1014.968	3018
1015.184	3015
1015.401	2913
1015.617	2913
1015.833	2800
1016.049	2828
1016.266	2809
1016.482	2755
1016.698	2640
1016.914	2699
1017.13	2644
1017.346	2609
1017.562	2654
1017.778	2555
1017.993	2510
1018.209	2587
1018.425	2563
1018.641	2539
1018.856	2488
1019.072	2554
1019.288	2577
1019.503	2509
1019.719	2401
1019.934	2411
1020.149	2466
1020.365	2405
1020.58	2290
1020.795	2296
1021.011	2230
1021.226	2156
1021.441	2162
1021.656	2060
1021.871	1947
1022.086	1936
1022.301	1910
1022.516	1902
1022.731	1898
1022.946	1785
1023.16	1784
1023.375	1735
1023.59	1692
1023.804	1622
1024.019	1694
1024.234	1566
1024.448	1568
1024.663	1474
1024.877	1460
1025.092	1481
1025.306	1461
1025.52	1354
1025.734	1421
1025.949	1320
1026.163	1297
1026.377	1206
1026.591	1264
1026.805	1162
1027.019	1154
1027.233	1096
1027.447	1076
1027.661	1158
1027.875	1081
1028.088	1084
1028.302	991
1028.516	956
1028.73	963
1028.943	946
1029.157	879
1029.37	814
1029.584	-2
1029.797	-2
1030.011	-2
1030.224	-2
