Data from QEP037381__505__17-28-47-564.txt Node

Date: Fri Dec 16 17:28:47 EST 2022
User: dcclab
Spectrometer: QEP03738
Trigger mode: 4
Integration Time (sec): 1.000000E1
Scans to average: 1
Electric dark correction enabled: true
Nonlinearity correction enabled: false
Boxcar width: 0
XAxis mode: Wavelengths
Number of Pixels in Spectrum: 1044
>>>>>Begin Spectral Data<<<<<
784.041	11
784.3	-1
784.558	-2
784.817	-3
785.075	125525
785.334	22171
785.592	10568
785.851	7334
786.109	5516
786.368	4298
786.626	3475
786.884	2853
787.143	2444
787.401	1984
787.659	1760
787.917	1481
788.175	1319
788.433	1168
788.691	1053
788.949	961
789.207	900
789.465	787
789.723	751
789.98	687
790.238	711
790.496	672
790.753	618
791.011	679
791.268	604
791.526	585
791.783	595
792.041	561
792.298	490
792.556	550
792.813	539
793.07	487
793.327	493
793.584	552
793.841	492
794.099	495
794.356	570
794.613	459
794.869	500
795.126	485
795.383	438
795.64	470
795.897	418
796.153	494
796.41	472
796.667	440
796.923	458
797.18	450
797.436	482
797.693	455
797.949	490
798.206	532
798.462	443
798.718	513
798.974	481
799.231	532
799.487	519
799.743	540
799.999	549
800.255	542
800.511	544
800.767	601
801.023	590
801.279	632
801.534	664
801.79	730
802.046	773
802.302	946
802.557	1089
802.813	1399
803.068	1740
803.324	2418
803.579	3318
803.835	4653
804.09	6529
804.345	8516
804.601	10821
804.856	13137
805.111	15260
805.366	16803
805.621	17925
805.876	18736
806.131	19105
806.386	19510
806.641	19860
806.896	20106
807.151	20485
807.406	20663
807.661	21097
807.915	21433
808.17	21596
808.425	21974
808.679	22064
808.934	22315
809.188	22535
809.443	22687
809.697	22959
809.951	23080
810.206	23195
810.46	23376
810.714	23564
810.968	23826
811.223	23847
811.477	24056
811.731	24291
811.985	24451
812.239	24562
812.493	24596
812.747	24713
813	24804
813.254	24873
813.508	24929
813.762	24992
814.015	25183
814.269	25268
814.522	25522
814.776	25779
815.03	26025
815.283	26381
815.536	26841
815.79	27093
816.043	27440
816.296	27796
816.55	28023
816.803	28449
817.056	28670
817.309	28858
817.562	29020
817.815	29375
818.068	29573
818.321	29871
818.574	30134
818.827	30390
819.079	30854
819.332	31346
819.585	31616
819.838	32001
820.09	32285
820.343	32602
820.595	32675
820.848	32964
821.1	33012
821.353	33016
821.605	32922
821.857	32985
822.11	32867
822.362	32830
822.614	32730
822.866	32848
823.118	32578
823.37	32728
823.622	32931
823.874	32912
824.126	33101
824.378	33172
824.63	33043
824.882	33259
825.134	33057
825.385	33084
825.637	33223
825.888	32990
826.14	32918
826.392	32758
826.643	32596
826.895	32541
827.146	32248
827.397	32357
827.649	32340
827.9	32267
828.151	32186
828.402	32314
828.653	32427
828.905	32514
829.156	32514
829.407	32501
829.658	32455
829.909	32519
830.159	32364
830.41	32157
830.661	32124
830.912	31789
831.162	31838
831.413	31725
831.664	31643
831.914	31657
832.165	31595
832.415	31545
832.666	31695
832.916	31575
833.167	31420
833.417	31473
833.667	31266
833.917	31131
834.168	31254
834.418	31082
834.668	30892
834.918	30766
835.168	30778
835.418	30594
835.668	30509
835.918	30572
836.167	30364
836.417	30410
836.667	30254
836.917	30335
837.166	30077
837.416	30066
837.666	29937
837.915	29986
838.165	29855
838.414	29749
838.663	29601
838.913	29539
839.162	29517
839.411	29528
839.661	29269
839.91	29272
840.159	29204
840.408	29213
840.657	29175
840.906	29217
841.155	29213
841.404	29258
841.653	29064
841.902	29125
842.15	29219
842.399	29133
842.648	29052
842.897	29032
843.145	28716
843.394	28548
843.642	28427
843.891	28326
844.139	28195
844.388	28078
844.636	27968
844.884	27881
845.133	27891
845.381	27758
845.629	27877
845.877	27682
846.125	27673
846.373	27598
846.621	27456
846.869	27320
847.117	27278
847.365	27198
847.613	27121
847.861	26972
848.108	26914
848.356	26689
848.604	26796
848.851	26698
849.099	26632
849.346	26727
849.594	26946
849.841	26940
850.089	26925
850.336	26900
850.583	26851
850.831	26716
851.078	26478
851.325	26476
851.572	26396
851.819	26127
852.066	25848
852.313	25618
852.56	25298
852.807	25301
853.054	25160
853.301	25010
853.548	25177
853.794	25282
854.041	25200
854.288	25378
854.534	25574
854.781	25476
855.028	25310
855.274	25290
855.52	25176
855.767	25056
856.013	25013
856.26	25229
856.506	24640
856.752	24648
856.998	24691
857.244	24714
857.49	24742
857.736	24843
857.982	24790
858.228	24806
858.474	24642
858.72	24487
858.966	24264
859.212	24072
859.458	23877
859.703	23583
859.949	23363
860.195	23210
860.44	23102
860.686	22811
860.931	22910
861.177	22795
861.422	22701
861.667	22650
861.913	22677
862.158	22688
862.403	22744
862.648	22811
862.893	22903
863.138	22827
863.384	22767
863.629	22711
863.873	22641
864.118	22520
864.363	22599
864.608	22380
864.853	22316
865.098	22137
865.342	21991
865.587	21939
865.832	22013
866.076	21812
866.321	21759
866.565	21701
866.81	21606
867.054	21473
867.298	21534
867.543	21392
867.787	21442
868.031	21305
868.275	21260
868.519	21216
868.764	21106
869.008	21017
869.252	21017
869.496	20844
869.739	20723
869.983	20684
870.227	20729
870.471	20593
870.715	20778
870.958	20730
871.202	20674
871.446	20743
871.689	20728
871.933	20761
872.176	20747
872.42	20666
872.663	20628
872.906	20504
873.15	20441
873.393	20389
873.636	20275
873.879	20050
874.122	19851
874.366	19625
874.609	19497
874.852	19392
875.095	19318
875.337	19344
875.58	19111
875.823	19008
876.066	19075
876.309	19013
876.551	18790
876.794	18893
877.037	18768
877.279	18623
877.522	18679
877.764	18768
878.007	18645
878.249	18681
878.491	18695
878.734	18667
878.976	18640
879.218	18456
879.46	18277
879.702	18210
879.945	18187
880.187	17925
880.429	17877
880.671	17723
880.912	17723
881.154	17633
881.396	17491
881.638	17577
881.88	17454
882.121	17469
882.363	17387
882.605	17445
882.846	17369
883.088	17256
883.329	17234
883.571	17120
883.812	17155
884.053	17234
884.295	17457
884.536	17517
884.777	17276
885.018	17212
885.259	17294
885.5	17174
885.742	17349
885.982	17107
886.223	16878
886.464	16858
886.705	16851
886.946	16745
887.187	16541
887.428	16636
887.668	16297
887.909	16193
888.15	16039
888.39	15984
888.631	15863
888.871	15754
889.111	15733
889.352	15518
889.592	15483
889.833	15296
890.073	15185
890.313	15294
890.553	15092
890.793	14939
891.033	14816
891.273	14782
891.513	14756
891.753	14749
891.993	14663
892.233	14689
892.473	14730
892.713	14670
892.952	14688
893.192	14657
893.432	14663
893.671	14651
893.911	14512
894.15	14564
894.39	14310
894.629	14303
894.869	14243
895.108	14081
895.347	13963
895.587	13956
895.826	13921
896.065	13836
896.304	13881
896.543	13755
896.782	13725
897.021	13775
897.26	13622
897.499	13691
897.738	13599
897.977	13449
898.216	13327
898.454	13202
898.693	13174
898.932	13071
899.17	12998
899.409	12919
899.647	12979
899.886	12895
900.124	12929
900.363	12883
900.601	12920
900.839	12848
901.078	12816
901.316	12860
901.554	12827
901.792	12862
902.03	12822
902.268	12768
902.506	12802
902.744	12637
902.982	12656
903.22	12447
903.458	12337
903.695	12310
903.933	12175
904.171	12010
904.409	11827
904.646	11645
904.884	11546
905.121	11618
905.359	11469
905.596	11301
905.833	11214
906.071	11139
906.308	11176
906.545	11149
906.783	11119
907.02	11073
907.257	11016
907.494	10992
907.731	10952
907.968	10898
908.205	10806
908.442	10787
908.679	10795
908.915	10546
909.152	10541
909.389	10430
909.626	10464
909.862	10311
910.099	10241
910.335	10272
910.572	10142
910.808	10122
911.045	10118
911.281	10073
911.518	10090
911.754	9976
911.99	9973
912.226	9841
912.463	9770
912.699	9720
912.935	9628
913.171	9498
913.407	9425
913.643	9476
913.879	9320
914.114	9324
914.35	9226
914.586	9048
914.822	8960
915.057	9048
915.293	8821
915.529	8818
915.764	8869
916	8847
916.235	8745
916.471	8805
916.706	8684
916.941	8693
917.177	8639
917.412	8635
917.647	8708
917.882	8613
918.117	8633
918.352	8606
918.588	8618
918.823	8447
919.057	8458
919.292	8211
919.527	8298
919.762	8159
919.997	8113
920.232	8000
920.466	8014
920.701	7783
920.935	7823
921.17	7762
921.405	7662
921.639	7736
921.873	7611
922.108	7570
922.342	7601
922.576	7564
922.811	7506
923.045	7533
923.279	7520
923.513	7281
923.747	7403
923.981	7402
924.215	7225
924.449	7229
924.683	7097
924.917	7170
925.151	7054
925.385	7130
925.618	7048
925.852	7013
926.086	6917
926.319	6981
926.553	7012
926.786	7028
927.02	6980
927.253	6999
927.486	6967
927.72	6885
927.953	6929
928.186	6848
928.42	6927
928.653	6789
928.886	6734
929.119	6800
929.352	6720
929.585	6661
929.818	6612
930.051	6641
930.284	6534
930.516	6457
930.749	6373
930.982	6398
931.215	6415
931.447	6293
931.68	6309
931.912	6249
932.145	6238
932.377	6257
932.61	6377
932.842	6261
933.074	6226
933.307	6226
933.539	6319
933.771	6263
934.003	6207
934.236	6237
934.468	6320
934.7	6238
934.932	6225
935.164	6208
935.395	6200
935.627	6089
935.859	6092
936.091	5983
936.323	6031
936.554	6014
936.786	5914
937.017	5875
937.249	5913
937.481	5852
937.712	5893
937.943	5876
938.175	5856
938.406	5779
938.637	5931
938.869	5810
939.1	5822
939.331	5742
939.562	5816
939.793	5765
940.024	5821
940.255	5821
940.486	5940
940.717	6129
940.948	6227
941.179	6119
941.409	6001
941.64	5889
941.871	5782
942.102	5654
942.332	5650
942.563	5598
942.793	5583
943.024	5491
943.254	5520
943.484	5586
943.715	5585
943.945	5509
944.175	5408
944.405	5419
944.636	5427
944.866	5413
945.096	5447
945.326	5369
945.556	5404
945.786	5370
946.016	5371
946.245	5236
946.475	5255
946.705	5155
946.935	5156
947.164	5169
947.394	5083
947.624	5101
947.853	5158
948.083	5062
948.312	5001
948.542	4971
948.771	4932
949	4963
949.23	5012
949.459	4977
949.688	5012
949.917	4991
950.146	4962
950.375	4977
950.604	4888
950.833	4964
951.062	4988
951.291	4925
951.52	4807
951.749	4828
951.978	4820
952.206	4791
952.435	4806
952.664	4830
952.892	4808
953.121	4766
953.349	4739
953.578	4800
953.806	4713
954.035	4665
954.263	4619
954.491	4593
954.719	4628
954.948	4533
955.176	4561
955.404	4457
955.632	4479
955.86	4497
956.088	4437
956.316	4464
956.544	4453
956.772	4390
956.999	4408
957.227	4420
957.455	4286
957.683	4318
957.91	4285
958.138	4228
958.365	4260
958.593	4258
958.82	4151
959.048	4224
959.275	4167
959.502	4145
959.73	4152
959.957	4183
960.184	4123
960.411	4101
960.638	4131
960.865	4104
961.092	4128
961.319	3999
961.546	4105
961.773	4127
962	4081
962.227	4135
962.454	4060
962.68	4054
962.907	4072
963.134	3988
963.36	3997
963.587	4017
963.813	3869
964.04	3904
964.266	3874
964.493	3884
964.719	3827
964.945	3852
965.171	3735
965.398	3785
965.624	3800
965.85	3657
966.076	3693
966.302	3732
966.528	3663
966.754	3678
966.98	3668
967.206	3656
967.431	3573
967.657	3671
967.883	3645
968.109	3635
968.334	3549
968.56	3530
968.785	3572
969.011	3527
969.236	3533
969.462	3527
969.687	3482
969.912	3547
970.138	3552
970.363	3455
970.588	3456
970.813	3445
971.038	3432
971.263	3423
971.488	3435
971.713	3410
971.938	3426
972.163	3319
972.388	3344
972.613	3304
972.838	3347
973.062	3316
973.287	3293
973.512	3227
973.736	3245
973.961	3214
974.185	3191
974.41	3223
974.634	3121
974.858	3106
975.083	3139
975.307	3170
975.531	3108
975.755	3022
975.98	3052
976.204	2987
976.428	2989
976.652	2955
976.876	2955
977.1	2972
977.324	2896
977.547	2934
977.771	2955
977.995	2945
978.219	2863
978.442	2965
978.666	2887
978.89	2920
979.113	2879
979.337	2877
979.56	2856
979.783	2916
980.007	2844
980.23	2831
980.453	2812
980.677	2807
980.9	2771
981.123	2701
981.346	2782
981.569	2785
981.792	2770
982.015	2744
982.238	2682
982.461	2680
982.684	2672
982.907	2633
983.129	2640
983.352	2687
983.575	2604
983.797	2627
984.02	2569
984.242	2547
984.465	2557
984.687	2592
984.91	2588
985.132	2579
985.354	2574
985.577	2523
985.799	2537
986.021	2466
986.243	2467
986.465	2468
986.687	2526
986.909	2527
987.131	2475
987.353	2440
987.575	2454
987.797	2430
988.019	2344
988.241	2414
988.462	2367
988.684	2436
988.906	2458
989.127	2442
989.349	2327
989.57	2389
989.792	2390
990.013	2393
990.234	2386
990.456	2422
990.677	2363
990.898	2301
991.119	2312
991.341	2353
991.562	2254
991.783	2305
992.004	2220
992.225	2210
992.446	2272
992.667	2163
992.887	2242
993.108	2123
993.329	2259
993.55	2163
993.77	2136
993.991	2117
994.212	2165
994.432	2124
994.653	2150
994.873	2132
995.093	2039
995.314	2033
995.534	2134
995.754	2118
995.975	2125
996.195	2033
996.415	2053
996.635	2066
996.855	2069
997.075	2014
997.295	2034
997.515	1957
997.735	2051
997.955	2004
998.174	1998
998.394	1978
998.614	2018
998.834	1979
999.053	2030
999.273	2019
999.492	2057
999.712	1994
999.931	1948
1000.151	1997
1000.37	1961
1000.589	2020
1000.809	1912
1001.028	2032
1001.247	1991
1001.466	1863
1001.685	1989
1001.904	1924
1002.123	1913
1002.342	1928
1002.561	1876
1002.78	1876
1002.999	1925
1003.218	1859
1003.436	1830
1003.655	1901
1003.874	1834
1004.092	1826
1004.311	1882
1004.53	1825
1004.748	1915
1004.966	1812
1005.185	1842
1005.403	1858
1005.622	1817
1005.84	1913
1006.058	1792
1006.276	1808
1006.494	2281
1006.712	1798
1006.931	1863
1007.149	1755
1007.367	1750
1007.584	1809
1007.802	1818
1008.02	1757
1008.238	1858
1008.456	1848
1008.673	1703
1008.891	1795
1009.109	1778
1009.326	1773
1009.544	1890
1009.761	1779
1009.979	1843
1010.196	1839
1010.413	1926
1010.631	1944
1010.848	2021
1011.065	1982
1011.282	1948
1011.5	1868
1011.717	2002
1011.934	1924
1012.151	1953
1012.368	1911
1012.585	1864
1012.801	1937
1013.018	1877
1013.235	1852
1013.452	1860
1013.669	1855
1013.885	1827
1014.102	1883
1014.318	1853
1014.535	1792
1014.751	1821
1014.968	1828
1015.184	1837
1015.401	1736
1015.617	1786
1015.833	1717
1016.049	1748
1016.266	1712
1016.482	1696
1016.698	1625
1016.914	1679
1017.13	1641
1017.346	1601
1017.562	1692
1017.778	1607
1017.993	1578
1018.209	1639
1018.425	1607
1018.641	1600
1018.856	1545
1019.072	1571
1019.288	1609
1019.503	1552
1019.719	1510
1019.934	1521
1020.149	1582
1020.365	1507
1020.58	1477
1020.795	1492
1021.011	1420
1021.226	1418
1021.441	1470
1021.656	1365
1021.871	1324
1022.086	1323
1022.301	1292
1022.516	1300
1022.731	1323
1022.946	1257
1023.16	1235
1023.375	1208
1023.59	1192
1023.804	1137
1024.019	1262
1024.234	1113
1024.448	1179
1024.663	1085
1024.877	1098
1025.092	1114
1025.306	1119
1025.52	1021
1025.734	1091
1025.949	1037
1026.163	1019
1026.377	923
1026.591	990
1026.805	916
1027.019	908
1027.233	867
1027.447	812
1027.661	906
1027.875	868
1028.088	848
1028.302	781
1028.516	759
1028.73	782
1028.943	756
1029.157	704
1029.37	661
1029.584	0
1029.797	1
1030.011	-3
1030.224	-3
