Data from QEP037381__54__10-21-11-067.txt Node

Date: Fri Apr 21 10:21:11 EDT 2023
User: dcclab
Spectrometer: QEP03738
Trigger mode: 4
Integration Time (sec): 1.000000E1
Scans to average: 1
Electric dark correction enabled: true
Nonlinearity correction enabled: false
Boxcar width: 0
XAxis mode: Wavelengths
Number of Pixels in Spectrum: 1044
>>>>>Begin Spectral Data<<<<<
784.041	8
784.3	5
784.558	-4
784.817	-6
785.075	228
785.334	218
785.592	201
785.851	198
786.109	229
786.368	237
786.626	245
786.884	279
787.143	267
787.401	198
787.659	284
787.917	254
788.175	298
788.433	274
788.691	280
788.949	277
789.207	308
789.465	265
789.723	275
789.98	252
790.238	313
790.496	295
790.753	286
791.011	351
791.268	302
791.526	296
791.783	335
792.041	325
792.298	249
792.556	320
792.813	317
793.07	292
793.327	287
793.584	373
793.841	300
794.099	324
794.356	392
794.613	284
794.869	326
795.126	302
795.383	296
795.64	310
795.897	271
796.153	320
796.41	314
796.667	281
796.923	303
797.18	290
797.436	327
797.693	287
797.949	340
798.206	362
798.462	272
798.718	330
798.974	309
799.231	341
799.487	312
799.743	328
799.999	346
800.255	323
800.511	313
800.767	335
801.023	301
801.279	315
801.534	327
801.79	349
802.046	296
802.302	352
802.557	339
802.813	357
803.068	290
803.324	352
803.579	320
803.835	311
804.09	354
804.345	309
804.601	269
804.856	293
805.111	324
805.366	307
805.621	307
805.876	335
806.131	323
806.386	308
806.641	264
806.896	311
807.151	368
807.406	330
807.661	337
807.915	320
808.17	337
808.425	314
808.679	288
808.934	367
809.188	312
809.443	343
809.697	362
809.951	292
810.206	302
810.46	351
810.714	319
810.968	364
811.223	277
811.477	324
811.731	349
811.985	257
812.239	249
812.493	282
812.747	314
813	275
813.254	334
813.508	345
813.762	305
814.015	302
814.269	325
814.522	328
814.776	340
815.03	330
815.283	335
815.536	333
815.79	345
816.043	328
816.296	333
816.55	324
816.803	313
817.056	395
817.309	334
817.562	323
817.815	372
818.068	288
818.321	288
818.574	293
818.827	335
819.079	308
819.332	407
819.585	349
819.838	405
820.09	311
820.343	359
820.595	292
820.848	337
821.1	335
821.353	323
821.605	313
821.857	357
822.11	284
822.362	301
822.614	277
822.866	323
823.118	263
823.37	381
823.622	322
823.874	305
824.126	340
824.378	290
824.63	310
824.882	340
825.134	304
825.385	347
825.637	316
825.888	308
826.14	315
826.392	296
826.643	299
826.895	384
827.146	314
827.397	302
827.649	392
827.9	293
828.151	273
828.402	287
828.653	322
828.905	319
829.156	371
829.407	300
829.658	320
829.909	359
830.159	346
830.41	352
830.661	358
830.912	336
831.162	333
831.413	296
831.664	353
831.914	327
832.165	332
832.415	340
832.666	339
832.916	349
833.167	310
833.417	373
833.667	352
833.917	332
834.168	365
834.418	344
834.668	324
834.918	278
835.168	295
835.418	273
835.668	331
835.918	356
836.167	354
836.417	286
836.667	371
836.917	371
837.166	316
837.416	359
837.666	381
837.915	330
838.165	340
838.414	307
838.663	261
838.913	339
839.162	288
839.411	394
839.661	306
839.91	336
840.159	318
840.408	349
840.657	328
840.906	324
841.155	349
841.404	320
841.653	345
841.902	301
842.15	344
842.399	335
842.648	312
842.897	343
843.145	274
843.394	297
843.642	309
843.891	363
844.139	334
844.388	282
844.636	260
844.884	315
845.133	302
845.381	331
845.629	351
845.877	305
846.125	312
846.373	329
846.621	302
846.869	345
847.117	333
847.365	316
847.613	336
847.861	357
848.108	382
848.356	346
848.604	308
848.851	340
849.099	327
849.346	319
849.594	345
849.841	360
850.089	312
850.336	295
850.583	308
850.831	334
851.078	342
851.325	300
851.572	371
851.819	362
852.066	336
852.313	331
852.56	298
852.807	279
853.054	299
853.301	316
853.548	310
853.794	403
854.041	335
854.288	281
854.534	402
854.781	327
855.028	306
855.274	387
855.52	329
855.767	294
856.013	346
856.26	628
856.506	306
856.752	359
856.998	323
857.244	305
857.49	339
857.736	349
857.982	342
858.228	350
858.474	295
858.72	340
858.966	345
859.212	342
859.458	325
859.703	345
859.949	315
860.195	378
860.44	359
860.686	310
860.931	389
861.177	317
861.422	384
861.667	327
861.913	335
862.158	337
862.403	376
862.648	358
862.893	404
863.138	350
863.384	312
863.629	367
863.873	356
864.118	330
864.363	279
864.608	341
864.853	377
865.098	342
865.342	372
865.587	342
865.832	366
866.076	357
866.321	317
866.565	333
866.81	264
867.054	331
867.298	352
867.543	313
867.787	354
868.031	341
868.275	345
868.519	326
868.764	324
869.008	334
869.252	378
869.496	325
869.739	334
869.983	385
870.227	361
870.471	306
870.715	353
870.958	361
871.202	307
871.446	321
871.689	306
871.933	340
872.176	325
872.42	346
872.663	314
872.906	383
873.15	328
873.393	293
873.636	366
873.879	364
874.122	385
874.366	318
874.609	364
874.852	331
875.095	350
875.337	328
875.58	276
875.823	348
876.066	387
876.309	408
876.551	322
876.794	283
877.037	379
877.279	300
877.522	315
877.764	361
878.007	318
878.249	353
878.491	311
878.734	372
878.976	365
879.218	317
879.46	397
879.702	386
879.945	371
880.187	333
880.429	379
880.671	369
880.912	391
881.154	364
881.396	277
881.638	349
881.88	332
882.121	313
882.363	340
882.605	388
882.846	359
883.088	377
883.329	319
883.571	304
883.812	308
884.053	325
884.295	327
884.536	393
884.777	336
885.018	343
885.259	344
885.5	294
885.742	530
885.982	360
886.223	316
886.464	324
886.705	288
886.946	347
887.187	286
887.428	376
887.668	319
887.909	313
888.15	302
888.39	355
888.631	397
888.871	383
889.111	363
889.352	355
889.592	339
889.833	347
890.073	359
890.313	405
890.553	310
890.793	339
891.033	331
891.273	332
891.513	348
891.753	409
891.993	355
892.233	375
892.473	430
892.713	365
892.952	319
893.192	362
893.432	324
893.671	370
893.911	333
894.15	353
894.39	290
894.629	337
894.869	359
895.108	348
895.347	319
895.587	369
895.826	333
896.065	312
896.304	368
896.543	381
896.782	296
897.021	358
897.26	334
897.499	403
897.738	409
897.977	361
898.216	348
898.454	355
898.693	345
898.932	384
899.17	327
899.409	349
899.647	362
899.886	324
900.124	371
900.363	331
900.601	375
900.839	362
901.078	348
901.316	355
901.554	344
901.792	358
902.03	309
902.268	335
902.506	378
902.744	333
902.982	387
903.22	307
903.458	345
903.695	383
903.933	367
904.171	325
904.409	349
904.646	387
904.884	337
905.121	413
905.359	377
905.596	376
905.833	336
906.071	345
906.308	408
906.545	377
906.783	313
907.02	365
907.257	314
907.494	343
907.731	365
907.968	379
908.205	343
908.442	336
908.679	365
908.915	353
909.152	375
909.389	298
909.626	349
909.862	332
910.099	369
910.335	398
910.572	316
910.808	366
911.045	360
911.281	319
911.518	422
911.754	339
911.99	378
912.226	344
912.463	324
912.699	351
912.935	352
913.171	346
913.407	336
913.643	404
913.879	370
914.114	358
914.35	339
914.586	376
914.822	333
915.057	436
915.293	316
915.529	333
915.764	406
916	381
916.235	375
916.471	407
916.706	319
916.941	360
917.177	351
917.412	385
917.647	398
917.882	338
918.117	390
918.352	386
918.588	429
918.823	353
919.057	367
919.292	296
919.527	419
919.762	370
919.997	430
920.232	371
920.466	416
920.701	318
920.935	383
921.17	353
921.405	344
921.639	392
921.873	356
922.108	394
922.342	403
922.576	333
922.811	341
923.045	406
923.279	435
923.513	303
923.747	408
923.981	385
924.215	358
924.449	367
924.683	326
924.917	351
925.151	360
925.385	437
925.618	394
925.852	388
926.086	333
926.319	381
926.553	371
926.786	405
927.02	376
927.253	431
927.486	420
927.72	343
927.953	421
928.186	368
928.42	407
928.653	350
928.886	347
929.119	396
929.352	388
929.585	399
929.818	367
930.051	399
930.284	411
930.516	340
930.749	364
930.982	422
931.215	417
931.447	341
931.68	383
931.912	370
932.145	359
932.377	391
932.61	498
932.842	320
933.074	382
933.307	344
933.539	431
933.771	418
934.003	364
934.236	430
934.468	457
934.7	372
934.932	421
935.164	369
935.395	368
935.627	392
935.859	401
936.091	360
936.323	403
936.554	437
936.786	394
937.017	348
937.249	400
937.481	342
937.712	413
937.943	381
938.175	375
938.406	378
938.637	445
938.869	344
939.1	402
939.331	364
939.562	411
939.793	401
940.024	428
940.255	432
940.486	401
940.717	413
940.948	394
941.179	358
941.409	380
941.64	375
941.871	409
942.102	378
942.332	378
942.563	423
942.793	397
943.024	351
943.254	375
943.484	413
943.715	439
943.945	403
944.175	342
944.405	321
944.636	340
944.866	390
945.096	408
945.326	339
945.556	402
945.786	426
946.016	383
946.245	343
946.475	374
946.705	375
946.935	392
947.164	416
947.394	371
947.624	400
947.853	420
948.083	411
948.312	383
948.542	341
948.771	332
949	364
949.23	371
949.459	379
949.688	447
949.917	379
950.146	392
950.375	450
950.604	349
950.833	445
951.062	452
951.291	391
951.52	371
951.749	396
951.978	357
952.206	375
952.435	366
952.664	418
952.892	417
953.121	405
953.349	455
953.578	446
953.806	403
954.035	372
954.263	427
954.491	378
954.719	429
954.948	389
955.176	374
955.404	335
955.632	413
955.86	409
956.088	408
956.316	429
956.544	464
956.772	393
956.999	392
957.227	494
957.455	398
957.683	430
957.91	382
958.138	398
958.365	408
958.593	405
958.82	367
959.048	442
959.275	422
959.502	405
959.73	401
959.957	418
960.184	455
960.411	393
960.638	472
960.865	430
961.092	457
961.319	352
961.546	457
961.773	469
962	404
962.227	454
962.454	425
962.68	417
962.907	435
963.134	417
963.36	439
963.587	474
963.813	424
964.04	475
964.266	416
964.493	506
964.719	480
964.945	487
965.171	404
965.398	464
965.624	490
965.85	419
966.076	436
966.302	481
966.528	451
966.754	479
966.98	481
967.206	472
967.431	415
967.657	507
967.883	489
968.109	486
968.334	440
968.56	420
968.785	455
969.011	419
969.236	479
969.462	418
969.687	437
969.912	500
970.138	510
970.363	437
970.588	482
970.813	445
971.038	435
971.263	489
971.488	490
971.713	520
971.938	504
972.163	410
972.388	454
972.613	445
972.838	467
973.062	463
973.287	455
973.512	417
973.736	455
973.961	459
974.185	440
974.41	482
974.634	390
974.858	439
975.083	463
975.307	507
975.531	437
975.755	409
975.98	426
976.204	381
976.428	390
976.652	416
976.876	411
977.1	434
977.324	412
977.547	456
977.771	469
977.995	439
978.219	392
978.442	506
978.666	450
978.89	458
979.113	448
979.337	436
979.56	429
979.783	507
980.007	406
980.23	443
980.453	413
980.677	457
980.9	455
981.123	378
981.346	491
981.569	451
981.792	488
982.015	459
982.238	427
982.461	466
982.684	430
982.907	423
983.129	431
983.352	496
983.575	454
983.797	482
984.02	440
984.242	447
984.465	457
984.687	498
984.91	520
985.132	486
985.354	515
985.577	493
985.799	464
986.021	411
986.243	443
986.465	460
986.687	520
986.909	567
987.131	496
987.353	456
987.575	491
987.797	469
988.019	416
988.241	497
988.462	460
988.684	507
988.906	538
989.127	569
989.349	457
989.57	493
989.792	532
990.013	532
990.234	561
990.456	574
990.677	556
990.898	514
991.119	502
991.341	553
991.562	488
991.783	538
992.004	481
992.225	450
992.446	522
992.667	466
992.887	528
993.108	453
993.329	570
993.55	527
993.77	481
993.991	500
994.212	549
994.432	534
994.653	544
994.873	534
995.093	447
995.314	495
995.534	565
995.754	580
995.975	602
996.195	488
996.415	552
996.635	537
996.855	545
997.075	528
997.295	539
997.515	498
997.735	566
997.955	545
998.174	544
998.394	509
998.614	570
998.834	510
999.053	590
999.273	561
999.492	604
999.712	544
999.931	537
1000.151	584
1000.37	582
1000.589	628
1000.809	561
1001.028	684
1001.247	644
1001.466	536
1001.685	692
1001.904	630
1002.123	631
1002.342	635
1002.561	594
1002.78	632
1002.999	706
1003.218	647
1003.436	630
1003.655	692
1003.874	631
1004.092	647
1004.311	686
1004.53	667
1004.748	755
1004.966	657
1005.185	704
1005.403	690
1005.622	679
1005.84	769
1006.058	649
1006.276	671
1006.494	1172
1006.712	668
1006.931	750
1007.149	647
1007.367	655
1007.584	677
1007.802	714
1008.02	654
1008.238	767
1008.456	732
1008.673	592
1008.891	699
1009.109	611
1009.326	659
1009.544	721
1009.761	596
1009.979	664
1010.196	616
1010.413	662
1010.631	689
1010.848	679
1011.065	675
1011.282	609
1011.5	546
1011.717	663
1011.934	615
1012.151	649
1012.368	640
1012.585	600
1012.801	665
1013.018	604
1013.235	580
1013.452	573
1013.669	606
1013.885	575
1014.102	619
1014.318	565
1014.535	533
1014.751	553
1014.968	573
1015.184	617
1015.401	530
1015.617	580
1015.833	540
1016.049	554
1016.266	544
1016.482	566
1016.698	508
1016.914	559
1017.13	514
1017.346	519
1017.562	586
1017.778	507
1017.993	486
1018.209	552
1018.425	520
1018.641	490
1018.856	467
1019.072	497
1019.288	546
1019.503	507
1019.719	433
1019.934	461
1020.149	541
1020.365	512
1020.58	474
1020.795	545
1021.011	501
1021.226	498
1021.441	540
1021.656	497
1021.871	454
1022.086	472
1022.301	461
1022.516	469
1022.731	528
1022.946	467
1023.16	467
1023.375	449
1023.59	449
1023.804	431
1024.019	542
1024.234	427
1024.448	463
1024.663	417
1024.877	441
1025.092	468
1025.306	483
1025.52	402
1025.734	519
1025.949	453
1026.163	435
1026.377	382
1026.591	467
1026.805	389
1027.019	390
1027.233	368
1027.447	319
1027.661	428
1027.875	383
1028.088	374
1028.302	329
1028.516	342
1028.73	361
1028.943	355
1029.157	329
1029.37	290
1029.584	0
1029.797	-1
1030.011	-3
1030.224	1
