Data from QEP037381__28__10-16-51-060.txt Node

Date: Fri Apr 21 10:16:51 EDT 2023
User: dcclab
Spectrometer: QEP03738
Trigger mode: 4
Integration Time (sec): 1.000000E1
Scans to average: 1
Electric dark correction enabled: true
Nonlinearity correction enabled: false
Boxcar width: 0
XAxis mode: Wavelengths
Number of Pixels in Spectrum: 1044
>>>>>Begin Spectral Data<<<<<
784.041	11
784.3	-1
784.558	-3
784.817	-6
785.075	239
785.334	209
785.592	210
785.851	206
786.109	238
786.368	235
786.626	250
786.884	276
787.143	271
787.401	214
787.659	277
787.917	250
788.175	296
788.433	271
788.691	283
788.949	277
789.207	305
789.465	247
789.723	269
789.98	252
790.238	313
790.496	287
790.753	285
791.011	365
791.268	301
791.526	303
791.783	310
792.041	319
792.298	254
792.556	324
792.813	307
793.07	300
793.327	290
793.584	379
793.841	302
794.099	334
794.356	375
794.613	280
794.869	322
795.126	298
795.383	285
795.64	308
795.897	267
796.153	320
796.41	317
796.667	291
796.923	290
797.18	301
797.436	336
797.693	283
797.949	332
798.206	359
798.462	277
798.718	334
798.974	294
799.231	332
799.487	327
799.743	325
799.999	333
800.255	332
800.511	305
800.767	346
801.023	312
801.279	319
801.534	335
801.79	332
802.046	297
802.302	349
802.557	341
802.813	336
803.068	298
803.324	327
803.579	310
803.835	294
804.09	350
804.345	287
804.601	265
804.856	306
805.111	324
805.366	315
805.621	315
805.876	345
806.131	325
806.386	303
806.641	278
806.896	311
807.151	369
807.406	318
807.661	337
807.915	326
808.17	349
808.425	332
808.679	292
808.934	377
809.188	301
809.443	347
809.697	368
809.951	303
810.206	308
810.46	355
810.714	343
810.968	369
811.223	279
811.477	321
811.731	345
811.985	269
812.239	241
812.493	292
812.747	312
813	276
813.254	329
813.508	345
813.762	287
814.015	305
814.269	318
814.522	339
814.776	329
815.03	331
815.283	335
815.536	324
815.79	345
816.043	340
816.296	320
816.55	330
816.803	318
817.056	406
817.309	329
817.562	328
817.815	382
818.068	281
818.321	293
818.574	283
818.827	334
819.079	298
819.332	412
819.585	335
819.838	397
820.09	299
820.343	358
820.595	287
820.848	339
821.1	346
821.353	325
821.605	306
821.857	385
822.11	280
822.362	303
822.614	268
822.866	315
823.118	272
823.37	377
823.622	313
823.874	309
824.126	354
824.378	288
824.63	324
824.882	335
825.134	320
825.385	353
825.637	324
825.888	310
826.14	322
826.392	305
826.643	293
826.895	374
827.146	317
827.397	315
827.649	377
827.9	300
828.151	279
828.402	277
828.653	309
828.905	319
829.156	375
829.407	294
829.658	319
829.909	370
830.159	336
830.41	358
830.661	359
830.912	332
831.162	314
831.413	321
831.664	363
831.914	322
832.165	325
832.415	333
832.666	334
832.916	344
833.167	320
833.417	393
833.667	355
833.917	343
834.168	381
834.418	354
834.668	331
834.918	298
835.168	312
835.418	273
835.668	334
835.918	365
836.167	349
836.417	286
836.667	363
836.917	382
837.166	319
837.416	355
837.666	365
837.915	333
838.165	349
838.414	308
838.663	277
838.913	351
839.162	297
839.411	386
839.661	312
839.91	334
840.159	308
840.408	344
840.657	328
840.906	337
841.155	382
841.404	325
841.653	328
841.902	297
842.15	334
842.399	338
842.648	323
842.897	350
843.145	296
843.394	309
843.642	314
843.891	357
844.139	331
844.388	295
844.636	269
844.884	325
845.133	302
845.381	326
845.629	366
845.877	291
846.125	308
846.373	338
846.621	295
846.869	352
847.117	329
847.365	336
847.613	345
847.861	355
848.108	384
848.356	352
848.604	316
848.851	352
849.099	328
849.346	328
849.594	343
849.841	363
850.089	326
850.336	294
850.583	307
850.831	318
851.078	339
851.325	299
851.572	365
851.819	356
852.066	326
852.313	321
852.56	288
852.807	283
853.054	286
853.301	320
853.548	305
853.794	392
854.041	337
854.288	285
854.534	389
854.781	325
855.028	301
855.274	387
855.52	335
855.767	297
856.013	364
856.26	618
856.506	307
856.752	360
856.998	310
857.244	308
857.49	345
857.736	345
857.982	348
858.228	346
858.474	292
858.72	336
858.966	343
859.212	341
859.458	335
859.703	341
859.949	318
860.195	376
860.44	347
860.686	303
860.931	383
861.177	316
861.422	379
861.667	328
861.913	329
862.158	340
862.403	377
862.648	362
862.893	384
863.138	341
863.384	295
863.629	357
863.873	354
864.118	337
864.363	265
864.608	355
864.853	371
865.098	343
865.342	357
865.587	323
865.832	375
866.076	355
866.321	335
866.565	333
866.81	273
867.054	328
867.298	351
867.543	295
867.787	361
868.031	346
868.275	339
868.519	325
868.764	344
869.008	331
869.252	370
869.496	335
869.739	334
869.983	395
870.227	362
870.471	323
870.715	362
870.958	356
871.202	321
871.446	334
871.689	305
871.933	326
872.176	345
872.42	326
872.663	318
872.906	378
873.15	330
873.393	279
873.636	375
873.879	367
874.122	397
874.366	342
874.609	373
874.852	328
875.095	359
875.337	313
875.58	280
875.823	339
876.066	381
876.309	411
876.551	308
876.794	284
877.037	370
877.279	304
877.522	327
877.764	354
878.007	316
878.249	347
878.491	300
878.734	357
878.976	363
879.218	300
879.46	389
879.702	380
879.945	359
880.187	343
880.429	375
880.671	367
880.912	384
881.154	365
881.396	290
881.638	354
881.88	348
882.121	323
882.363	332
882.605	396
882.846	371
883.088	384
883.329	323
883.571	297
883.812	321
884.053	318
884.295	339
884.536	409
884.777	325
885.018	349
885.259	360
885.5	297
885.742	497
885.982	366
886.223	323
886.464	327
886.705	309
886.946	354
887.187	283
887.428	379
887.668	331
887.909	322
888.15	300
888.39	365
888.631	410
888.871	370
889.111	356
889.352	367
889.592	333
889.833	339
890.073	358
890.313	423
890.553	297
890.793	349
891.033	321
891.273	337
891.513	342
891.753	412
891.993	350
892.233	364
892.473	409
892.713	373
892.952	307
893.192	353
893.432	335
893.671	378
893.911	340
894.15	355
894.39	295
894.629	332
894.869	376
895.108	350
895.347	308
895.587	365
895.826	332
896.065	321
896.304	369
896.543	387
896.782	292
897.021	358
897.26	341
897.499	392
897.738	408
897.977	352
898.216	353
898.454	356
898.693	326
898.932	366
899.17	361
899.409	356
899.647	357
899.886	322
900.124	369
900.363	322
900.601	369
900.839	354
901.078	355
901.316	352
901.554	348
901.792	363
902.03	302
902.268	335
902.506	391
902.744	337
902.982	381
903.22	322
903.458	336
903.695	386
903.933	382
904.171	333
904.409	338
904.646	386
904.884	342
905.121	409
905.359	381
905.596	368
905.833	338
906.071	349
906.308	413
906.545	356
906.783	310
907.02	348
907.257	317
907.494	338
907.731	375
907.968	374
908.205	335
908.442	333
908.679	361
908.915	361
909.152	359
909.389	309
909.626	345
909.862	333
910.099	371
910.335	392
910.572	322
910.808	380
911.045	345
911.281	324
911.518	415
911.754	346
911.99	359
912.226	357
912.463	332
912.699	351
912.935	358
913.171	357
913.407	337
913.643	394
913.879	363
914.114	359
914.35	340
914.586	370
914.822	343
915.057	439
915.293	304
915.529	332
915.764	413
916	389
916.235	370
916.471	411
916.706	321
916.941	366
917.177	344
917.412	383
917.647	382
917.882	346
918.117	399
918.352	373
918.588	422
918.823	362
919.057	372
919.292	294
919.527	437
919.762	351
919.997	429
920.232	379
920.466	439
920.701	316
920.935	392
921.17	358
921.405	344
921.639	405
921.873	383
922.108	399
922.342	398
922.576	332
922.811	363
923.045	390
923.279	426
923.513	316
923.747	423
923.981	383
924.215	357
924.449	360
924.683	328
924.917	366
925.151	364
925.385	422
925.618	389
925.852	408
926.086	327
926.319	388
926.553	378
926.786	408
927.02	376
927.253	417
927.486	411
927.72	341
927.953	407
928.186	372
928.42	400
928.653	348
928.886	358
929.119	397
929.352	382
929.585	390
929.818	351
930.051	401
930.284	412
930.516	328
930.749	363
930.982	410
931.215	399
931.447	358
931.68	371
931.912	355
932.145	358
932.377	394
932.61	508
932.842	325
933.074	397
933.307	347
933.539	436
933.771	422
934.003	374
934.236	437
934.468	456
934.7	369
934.932	414
935.164	380
935.395	350
935.627	379
935.859	407
936.091	332
936.323	408
936.554	436
936.786	389
937.017	336
937.249	394
937.481	327
937.712	411
937.943	385
938.175	376
938.406	382
938.637	444
938.869	347
939.1	408
939.331	366
939.562	410
939.793	395
940.024	423
940.255	447
940.486	407
940.717	390
940.948	386
941.179	359
941.409	388
941.64	366
941.871	382
942.102	370
942.332	376
942.563	411
942.793	389
943.024	343
943.254	370
943.484	427
943.715	431
943.945	397
944.175	338
944.405	330
944.636	351
944.866	395
945.096	405
945.326	344
945.556	402
945.786	424
946.016	387
946.245	351
946.475	381
946.705	387
946.935	399
947.164	409
947.394	364
947.624	398
947.853	425
948.083	407
948.312	375
948.542	344
948.771	341
949	367
949.23	369
949.459	378
949.688	446
949.917	386
950.146	408
950.375	445
950.604	363
950.833	468
951.062	447
951.291	388
951.52	357
951.749	389
951.978	362
952.206	365
952.435	373
952.664	426
952.892	432
953.121	407
953.349	445
953.578	440
953.806	408
954.035	388
954.263	404
954.491	368
954.719	431
954.948	373
955.176	400
955.404	340
955.632	407
955.86	417
956.088	420
956.316	445
956.544	461
956.772	403
956.999	392
957.227	493
957.455	385
957.683	442
957.91	390
958.138	384
958.365	416
958.593	404
958.82	363
959.048	450
959.275	415
959.502	405
959.73	380
959.957	422
960.184	446
960.411	384
960.638	477
960.865	427
961.092	456
961.319	366
961.546	466
961.773	457
962	409
962.227	478
962.454	418
962.68	425
962.907	452
963.134	406
963.36	433
963.587	471
963.813	414
964.04	473
964.266	411
964.493	509
964.719	480
964.945	502
965.171	395
965.398	472
965.624	501
965.85	428
966.076	427
966.302	483
966.528	457
966.754	487
966.98	457
967.206	471
967.431	421
967.657	518
967.883	483
968.109	479
968.334	429
968.56	428
968.785	456
969.011	411
969.236	481
969.462	419
969.687	446
969.912	502
970.138	509
970.363	431
970.588	479
970.813	440
971.038	437
971.263	482
971.488	468
971.713	519
971.938	499
972.163	419
972.388	468
972.613	439
972.838	457
973.062	453
973.287	462
973.512	409
973.736	461
973.961	441
974.185	448
974.41	492
974.634	400
974.858	439
975.083	476
975.307	501
975.531	439
975.755	395
975.98	434
976.204	390
976.428	389
976.652	406
976.876	387
977.1	443
977.324	392
977.547	471
977.771	463
977.995	443
978.219	392
978.442	520
978.666	460
978.89	449
979.113	440
979.337	442
979.56	414
979.783	496
980.007	415
980.23	452
980.453	424
980.677	469
980.9	460
981.123	371
981.346	479
981.569	458
981.792	490
982.015	466
982.238	415
982.461	449
982.684	419
982.907	422
983.129	419
983.352	484
983.575	473
983.797	470
984.02	436
984.242	444
984.465	448
984.687	489
984.91	527
985.132	499
985.354	510
985.577	488
985.799	481
986.021	414
986.243	453
986.465	466
986.687	533
986.909	548
987.131	505
987.353	467
987.575	505
987.797	456
988.019	435
988.241	495
988.462	437
988.684	507
988.906	546
989.127	551
989.349	444
989.57	490
989.792	534
990.013	548
990.234	547
990.456	573
990.677	555
990.898	525
991.119	511
991.341	533
991.562	475
991.783	536
992.004	488
992.225	464
992.446	535
992.667	452
992.887	542
993.108	461
993.329	597
993.55	531
993.77	486
993.991	491
994.212	515
994.432	532
994.653	552
994.873	544
995.093	439
995.314	475
995.534	582
995.754	579
995.975	615
996.195	493
996.415	556
996.635	519
996.855	536
997.075	512
997.295	517
997.515	519
997.735	555
997.955	534
998.174	523
998.394	515
998.614	575
998.834	510
999.053	590
999.273	570
999.492	621
999.712	571
999.931	543
1000.151	571
1000.37	577
1000.589	643
1000.809	556
1001.028	667
1001.247	633
1001.466	529
1001.685	694
1001.904	630
1002.123	625
1002.342	635
1002.561	596
1002.78	623
1002.999	688
1003.218	656
1003.436	627
1003.655	677
1003.874	631
1004.092	659
1004.311	679
1004.53	659
1004.748	739
1004.966	653
1005.185	707
1005.403	704
1005.622	677
1005.84	749
1006.058	652
1006.276	687
1006.494	1159
1006.712	687
1006.931	722
1007.149	652
1007.367	650
1007.584	671
1007.802	704
1008.02	642
1008.238	727
1008.456	729
1008.673	585
1008.891	698
1009.109	640
1009.326	662
1009.544	726
1009.761	603
1009.979	674
1010.196	617
1010.413	671
1010.631	673
1010.848	688
1011.065	672
1011.282	613
1011.5	568
1011.717	674
1011.934	637
1012.151	668
1012.368	638
1012.585	583
1012.801	642
1013.018	631
1013.235	596
1013.452	611
1013.669	600
1013.885	550
1014.102	622
1014.318	557
1014.535	528
1014.751	562
1014.968	565
1015.184	610
1015.401	538
1015.617	595
1015.833	534
1016.049	565
1016.266	531
1016.482	546
1016.698	504
1016.914	569
1017.13	519
1017.346	521
1017.562	576
1017.778	519
1017.993	485
1018.209	557
1018.425	526
1018.641	506
1018.856	467
1019.072	508
1019.288	543
1019.503	498
1019.719	449
1019.934	449
1020.149	550
1020.365	498
1020.58	469
1020.795	535
1021.011	494
1021.226	497
1021.441	542
1021.656	495
1021.871	452
1022.086	459
1022.301	477
1022.516	471
1022.731	531
1022.946	466
1023.16	463
1023.375	455
1023.59	436
1023.804	425
1024.019	539
1024.234	424
1024.448	465
1024.663	425
1024.877	448
1025.092	478
1025.306	488
1025.52	406
1025.734	521
1025.949	453
1026.163	435
1026.377	385
1026.591	446
1026.805	391
1027.019	397
1027.233	374
1027.447	309
1027.661	429
1027.875	377
1028.088	386
1028.302	328
1028.516	349
1028.73	360
1028.943	365
1029.157	329
1029.37	319
1029.584	3
1029.797	-1
1030.011	0
1030.224	-3
