Data from QEP037381__32__10-17-31-062.txt Node

Date: Fri Apr 21 10:17:31 EDT 2023
User: dcclab
Spectrometer: QEP03738
Trigger mode: 4
Integration Time (sec): 1.000000E1
Scans to average: 1
Electric dark correction enabled: true
Nonlinearity correction enabled: false
Boxcar width: 0
XAxis mode: Wavelengths
Number of Pixels in Spectrum: 1044
>>>>>Begin Spectral Data<<<<<
784.041	12
784.3	-1
784.558	-1
784.817	-4
785.075	244
785.334	205
785.592	199
785.851	194
786.109	233
786.368	245
786.626	248
786.884	281
787.143	275
787.401	216
787.659	273
787.917	246
788.175	296
788.433	283
788.691	270
788.949	281
789.207	305
789.465	250
789.723	269
789.98	252
790.238	316
790.496	300
790.753	293
791.011	356
791.268	304
791.526	299
791.783	329
792.041	336
792.298	244
792.556	327
792.813	309
793.07	307
793.327	300
793.584	365
793.841	290
794.099	320
794.356	382
794.613	283
794.869	329
795.126	297
795.383	274
795.64	308
795.897	271
796.153	317
796.41	309
796.667	297
796.923	301
797.18	308
797.436	327
797.693	286
797.949	341
798.206	369
798.462	271
798.718	336
798.974	292
799.231	335
799.487	327
799.743	318
799.999	344
800.255	328
800.511	304
800.767	346
801.023	305
801.279	323
801.534	334
801.79	348
802.046	298
802.302	345
802.557	326
802.813	340
803.068	302
803.324	340
803.579	316
803.835	293
804.09	341
804.345	290
804.601	268
804.856	312
805.111	330
805.366	318
805.621	323
805.876	335
806.131	322
806.386	305
806.641	280
806.896	315
807.151	374
807.406	312
807.661	343
807.915	314
808.17	344
808.425	330
808.679	282
808.934	372
809.188	306
809.443	324
809.697	372
809.951	299
810.206	298
810.46	350
810.714	325
810.968	364
811.223	274
811.477	313
811.731	353
811.985	265
812.239	250
812.493	285
812.747	310
813	270
813.254	315
813.508	347
813.762	299
814.015	294
814.269	317
814.522	345
814.776	334
815.03	337
815.283	326
815.536	342
815.79	339
816.043	345
816.296	337
816.55	312
816.803	317
817.056	409
817.309	340
817.562	326
817.815	371
818.068	288
818.321	287
818.574	287
818.827	340
819.079	296
819.332	413
819.585	339
819.838	396
820.09	303
820.343	371
820.595	283
820.848	347
821.1	337
821.353	315
821.605	309
821.857	399
822.11	290
822.362	292
822.614	286
822.866	322
823.118	269
823.37	373
823.622	314
823.874	313
824.126	355
824.378	289
824.63	309
824.882	336
825.134	314
825.385	344
825.637	339
825.888	313
826.14	312
826.392	299
826.643	287
826.895	379
827.146	321
827.397	304
827.649	377
827.9	292
828.151	276
828.402	287
828.653	317
828.905	322
829.156	382
829.407	280
829.658	321
829.909	349
830.159	341
830.41	355
830.661	364
830.912	326
831.162	301
831.413	310
831.664	355
831.914	329
832.165	340
832.415	335
832.666	340
832.916	349
833.167	307
833.417	387
833.667	344
833.917	331
834.168	386
834.418	351
834.668	324
834.918	280
835.168	314
835.418	259
835.668	330
835.918	355
836.167	358
836.417	289
836.667	353
836.917	370
837.166	330
837.416	358
837.666	362
837.915	321
838.165	338
838.414	297
838.663	278
838.913	319
839.162	296
839.411	398
839.661	306
839.91	341
840.159	313
840.408	340
840.657	325
840.906	334
841.155	364
841.404	317
841.653	330
841.902	300
842.15	335
842.399	326
842.648	319
842.897	354
843.145	284
843.394	291
843.642	307
843.891	368
844.139	338
844.388	300
844.636	271
844.884	326
845.133	305
845.381	332
845.629	352
845.877	300
846.125	309
846.373	328
846.621	279
846.869	352
847.117	323
847.365	327
847.613	341
847.861	351
848.108	379
848.356	353
848.604	297
848.851	352
849.099	333
849.346	324
849.594	342
849.841	353
850.089	315
850.336	289
850.583	316
850.831	319
851.078	332
851.325	304
851.572	355
851.819	354
852.066	320
852.313	325
852.56	297
852.807	287
853.054	288
853.301	312
853.548	314
853.794	407
854.041	338
854.288	287
854.534	392
854.781	320
855.028	311
855.274	384
855.52	328
855.767	299
856.013	344
856.26	624
856.506	311
856.752	361
856.998	326
857.244	314
857.49	364
857.736	341
857.982	349
858.228	360
858.474	287
858.72	346
858.966	349
859.212	345
859.458	337
859.703	341
859.949	315
860.195	377
860.44	364
860.686	305
860.931	388
861.177	318
861.422	381
861.667	317
861.913	333
862.158	335
862.403	380
862.648	365
862.893	380
863.138	342
863.384	315
863.629	362
863.873	343
864.118	340
864.363	272
864.608	341
864.853	366
865.098	343
865.342	358
865.587	337
865.832	372
866.076	364
866.321	315
866.565	326
866.81	266
867.054	333
867.298	349
867.543	305
867.787	365
868.031	344
868.275	342
868.519	325
868.764	339
869.008	325
869.252	385
869.496	337
869.739	340
869.983	382
870.227	351
870.471	318
870.715	345
870.958	355
871.202	304
871.446	317
871.689	298
871.933	335
872.176	344
872.42	331
872.663	324
872.906	383
873.15	328
873.393	291
873.636	373
873.879	362
874.122	402
874.366	346
874.609	368
874.852	346
875.095	338
875.337	328
875.58	276
875.823	348
876.066	381
876.309	398
876.551	306
876.794	285
877.037	361
877.279	299
877.522	320
877.764	358
878.007	313
878.249	338
878.491	303
878.734	390
878.976	343
879.218	313
879.46	383
879.702	376
879.945	382
880.187	328
880.429	386
880.671	375
880.912	386
881.154	364
881.396	287
881.638	350
881.88	355
882.121	319
882.363	337
882.605	395
882.846	371
883.088	376
883.329	323
883.571	301
883.812	313
884.053	330
884.295	338
884.536	403
884.777	319
885.018	357
885.259	360
885.5	296
885.742	513
885.982	363
886.223	307
886.464	341
886.705	300
886.946	359
887.187	288
887.428	384
887.668	339
887.909	310
888.15	307
888.39	359
888.631	401
888.871	371
889.111	365
889.352	365
889.592	342
889.833	353
890.073	345
890.313	420
890.553	306
890.793	353
891.033	313
891.273	332
891.513	354
891.753	406
891.993	352
892.233	378
892.473	410
892.713	362
892.952	332
893.192	352
893.432	328
893.671	367
893.911	343
894.15	352
894.39	287
894.629	342
894.869	376
895.108	352
895.347	314
895.587	368
895.826	337
896.065	307
896.304	363
896.543	389
896.782	296
897.021	354
897.26	336
897.499	400
897.738	405
897.977	357
898.216	354
898.454	351
898.693	329
898.932	375
899.17	348
899.409	353
899.647	347
899.886	333
900.124	366
900.363	313
900.601	361
900.839	359
901.078	357
901.316	357
901.554	342
901.792	348
902.03	315
902.268	343
902.506	387
902.744	323
902.982	378
903.22	313
903.458	328
903.695	374
903.933	400
904.171	321
904.409	337
904.646	375
904.884	344
905.121	410
905.359	376
905.596	372
905.833	337
906.071	352
906.308	403
906.545	372
906.783	311
907.02	357
907.257	307
907.494	344
907.731	361
907.968	379
908.205	330
908.442	338
908.679	357
908.915	353
909.152	361
909.389	297
909.626	347
909.862	333
910.099	366
910.335	390
910.572	317
910.808	372
911.045	348
911.281	335
911.518	409
911.754	343
911.99	363
912.226	355
912.463	330
912.699	344
912.935	342
913.171	348
913.407	328
913.643	400
913.879	368
914.114	376
914.35	363
914.586	362
914.822	330
915.057	428
915.293	324
915.529	327
915.764	400
916	387
916.235	389
916.471	396
916.706	310
916.941	342
917.177	351
917.412	389
917.647	391
917.882	336
918.117	405
918.352	367
918.588	427
918.823	348
919.057	372
919.292	301
919.527	424
919.762	354
919.997	406
920.232	379
920.466	422
920.701	315
920.935	387
921.17	358
921.405	330
921.639	389
921.873	374
922.108	405
922.342	407
922.576	341
922.811	360
923.045	405
923.279	426
923.513	315
923.747	406
923.981	383
924.215	360
924.449	376
924.683	332
924.917	339
925.151	363
925.385	430
925.618	365
925.852	387
926.086	336
926.319	379
926.553	378
926.786	385
927.02	376
927.253	403
927.486	429
927.72	350
927.953	408
928.186	370
928.42	410
928.653	342
928.886	345
929.119	398
929.352	385
929.585	386
929.818	356
930.051	390
930.284	405
930.516	342
930.749	365
930.982	411
931.215	405
931.447	337
931.68	368
931.912	363
932.145	363
932.377	378
932.61	503
932.842	310
933.074	398
933.307	350
933.539	434
933.771	426
934.003	358
934.236	441
934.468	450
934.7	386
934.932	408
935.164	357
935.395	367
935.627	372
935.859	389
936.091	341
936.323	408
936.554	450
936.786	398
937.017	349
937.249	403
937.481	336
937.712	411
937.943	383
938.175	379
938.406	365
938.637	444
938.869	336
939.1	407
939.331	369
939.562	409
939.793	402
940.024	431
940.255	443
940.486	406
940.717	375
940.948	396
941.179	353
941.409	382
941.64	378
941.871	386
942.102	365
942.332	375
942.563	427
942.793	382
943.024	344
943.254	367
943.484	438
943.715	438
943.945	397
944.175	348
944.405	317
944.636	346
944.866	385
945.096	399
945.326	332
945.556	401
945.786	426
946.016	384
946.245	355
946.475	372
946.705	376
946.935	391
947.164	403
947.394	372
947.624	389
947.853	434
948.083	422
948.312	392
948.542	355
948.771	336
949	348
949.23	370
949.459	377
949.688	439
949.917	393
950.146	410
950.375	443
950.604	360
950.833	444
951.062	430
951.291	405
951.52	381
951.749	393
951.978	375
952.206	378
952.435	372
952.664	420
952.892	426
953.121	386
953.349	435
953.578	426
953.806	408
954.035	371
954.263	418
954.491	362
954.719	424
954.948	394
955.176	384
955.404	332
955.632	403
955.86	439
956.088	420
956.316	441
956.544	455
956.772	416
956.999	387
957.227	498
957.455	405
957.683	440
957.91	402
958.138	391
958.365	400
958.593	407
958.82	360
959.048	451
959.275	425
959.502	420
959.73	388
959.957	424
960.184	452
960.411	375
960.638	472
960.865	414
961.092	445
961.319	350
961.546	448
961.773	462
962	413
962.227	461
962.454	439
962.68	411
962.907	460
963.134	398
963.36	444
963.587	459
963.813	421
964.04	474
964.266	409
964.493	516
964.719	469
964.945	508
965.171	395
965.398	446
965.624	502
965.85	430
966.076	435
966.302	474
966.528	433
966.754	465
966.98	477
967.206	479
967.431	423
967.657	503
967.883	490
968.109	473
968.334	421
968.56	434
968.785	461
969.011	422
969.236	489
969.462	414
969.687	450
969.912	490
970.138	521
970.363	428
970.588	468
970.813	445
971.038	437
971.263	480
971.488	473
971.713	509
971.938	498
972.163	423
972.388	459
972.613	435
972.838	472
973.062	452
973.287	456
973.512	401
973.736	460
973.961	453
974.185	431
974.41	500
974.634	412
974.858	423
975.083	475
975.307	488
975.531	447
975.755	403
975.98	439
976.204	385
976.428	383
976.652	411
976.876	387
977.1	431
977.324	392
977.547	453
977.771	456
977.995	444
978.219	376
978.442	510
978.666	439
978.89	442
979.113	455
979.337	433
979.56	416
979.783	513
980.007	402
980.23	439
980.453	407
980.677	471
980.9	448
981.123	364
981.346	476
981.569	477
981.792	496
982.015	445
982.238	428
982.461	458
982.684	431
982.907	424
983.129	431
983.352	478
983.575	467
983.797	488
984.02	432
984.242	440
984.465	459
984.687	489
984.91	515
985.132	500
985.354	505
985.577	487
985.799	477
986.021	419
986.243	456
986.465	455
986.687	527
986.909	556
987.131	488
987.353	480
987.575	518
987.797	466
988.019	423
988.241	490
988.462	447
988.684	513
988.906	539
989.127	558
989.349	442
989.57	487
989.792	522
990.013	531
990.234	534
990.456	586
990.677	565
990.898	503
991.119	512
991.341	562
991.562	470
991.783	537
992.004	472
992.225	463
992.446	519
992.667	443
992.887	535
993.108	441
993.329	576
993.55	537
993.77	483
993.991	478
994.212	541
994.432	526
994.653	554
994.873	543
995.093	435
995.314	491
995.534	562
995.754	576
995.975	605
996.195	501
996.415	561
996.635	542
996.855	542
997.075	529
997.295	515
997.515	499
997.735	570
997.955	545
998.174	531
998.394	513
998.614	567
998.834	524
999.053	597
999.273	572
999.492	605
999.712	558
999.931	521
1000.151	580
1000.37	574
1000.589	640
1000.809	556
1001.028	694
1001.247	637
1001.466	543
1001.685	675
1001.904	634
1002.123	629
1002.342	642
1002.561	601
1002.78	628
1002.999	713
1003.218	646
1003.436	626
1003.655	678
1003.874	626
1004.092	641
1004.311	694
1004.53	649
1004.748	744
1004.966	658
1005.185	713
1005.403	700
1005.622	683
1005.84	738
1006.058	648
1006.276	680
1006.494	1159
1006.712	681
1006.931	737
1007.149	665
1007.367	652
1007.584	670
1007.802	726
1008.02	661
1008.238	747
1008.456	736
1008.673	581
1008.891	696
1009.109	633
1009.326	651
1009.544	710
1009.761	595
1009.979	668
1010.196	624
1010.413	676
1010.631	675
1010.848	661
1011.065	673
1011.282	621
1011.5	554
1011.717	678
1011.934	619
1012.151	670
1012.368	633
1012.585	583
1012.801	640
1013.018	622
1013.235	583
1013.452	591
1013.669	601
1013.885	572
1014.102	628
1014.318	567
1014.535	533
1014.751	553
1014.968	572
1015.184	609
1015.401	538
1015.617	580
1015.833	528
1016.049	547
1016.266	545
1016.482	564
1016.698	496
1016.914	556
1017.13	518
1017.346	525
1017.562	588
1017.778	522
1017.993	495
1018.209	547
1018.425	529
1018.641	503
1018.856	457
1019.072	489
1019.288	548
1019.503	509
1019.719	439
1019.934	451
1020.149	538
1020.365	485
1020.58	468
1020.795	543
1021.011	489
1021.226	502
1021.441	558
1021.656	491
1021.871	439
1022.086	474
1022.301	463
1022.516	463
1022.731	533
1022.946	472
1023.16	463
1023.375	449
1023.59	456
1023.804	432
1024.019	539
1024.234	419
1024.448	477
1024.663	409
1024.877	431
1025.092	471
1025.306	483
1025.52	406
1025.734	500
1025.949	450
1026.163	420
1026.377	378
1026.591	440
1026.805	383
1027.019	377
1027.233	372
1027.447	309
1027.661	432
1027.875	374
1028.088	399
1028.302	338
1028.516	336
1028.73	357
1028.943	363
1029.157	333
1029.37	304
1029.584	-2
1029.797	-1
1030.011	-2
1030.224	-1
