Data from QEP037381__75__13-33-41-027.txt Node

Date: Wed Dec 21 13:33:41 EST 2022
User: dcclab
Spectrometer: QEP03738
Trigger mode: 4
Integration Time (sec): 1.000000E1
Scans to average: 1
Electric dark correction enabled: true
Nonlinearity correction enabled: false
Boxcar width: 0
XAxis mode: Wavelengths
Number of Pixels in Spectrum: 1044
>>>>>Begin Spectral Data<<<<<
784.041	12
784.3	-2
784.558	-2
784.817	-3
785.075	89979
785.334	15630
785.592	7381
785.851	5100
786.109	3841
786.368	2996
786.626	2419
786.884	2027
787.143	1701
787.401	1397
787.659	1256
787.917	1086
788.175	1005
788.433	878
788.691	784
788.949	724
789.207	707
789.465	610
789.723	587
789.98	537
790.238	589
790.496	548
790.753	520
791.011	570
791.268	502
791.526	482
791.783	496
792.041	487
792.298	412
792.556	474
792.813	460
793.07	440
793.327	417
793.584	500
793.841	414
794.099	438
794.356	492
794.613	409
794.869	429
795.126	400
795.383	386
795.64	405
795.897	353
796.153	420
796.41	397
796.667	385
796.923	377
797.18	385
797.436	418
797.693	377
797.949	436
798.206	455
798.462	358
798.718	421
798.974	400
799.231	429
799.487	426
799.743	425
799.999	442
800.255	427
800.511	428
800.767	428
801.023	423
801.279	440
801.534	466
801.79	495
802.046	486
802.302	573
802.557	605
802.813	692
803.068	760
803.324	1017
803.579	1295
803.835	1706
804.09	2263
804.345	2903
804.601	3590
804.856	4382
805.111	5027
805.366	5512
805.621	5879
805.876	6182
806.131	6285
806.386	6415
806.641	6443
806.896	6618
807.151	6773
807.406	6824
807.661	6933
807.915	7088
808.17	7170
808.425	7265
808.679	7321
808.934	7478
809.188	7524
809.443	7569
809.697	7737
809.951	7684
810.206	7769
810.46	7849
810.714	7946
810.968	8085
811.223	8061
811.477	8164
811.731	8238
811.985	8301
812.239	8230
812.493	8329
812.747	8330
813	8354
813.254	8391
813.508	8479
813.762	8463
814.015	8458
814.269	8585
814.522	8702
814.776	8757
815.03	8912
815.283	8987
815.536	9161
815.79	9297
816.043	9448
816.296	9562
816.55	9696
816.803	9772
817.056	10036
817.309	10019
817.562	10170
817.815	10407
818.068	10272
818.321	10448
818.574	10547
818.827	10678
819.079	10821
819.332	11119
819.585	11170
819.838	11402
820.09	11363
820.343	11526
820.595	11417
820.848	11557
821.1	11689
821.353	11617
821.605	11518
821.857	11586
822.11	11445
822.362	11495
822.614	11515
822.866	11564
823.118	11534
823.37	11662
823.622	11641
823.874	11719
824.126	11788
824.378	11721
824.63	11811
824.882	11806
825.134	11763
825.385	11756
825.637	11666
825.888	11645
826.14	11622
826.392	11614
826.643	11501
826.895	11556
827.146	11442
827.397	11431
827.649	11520
827.9	11453
828.151	11423
828.402	11516
828.653	11522
828.905	11609
829.156	11688
829.407	11593
829.658	11685
829.909	11778
830.159	11802
830.41	11765
830.661	11716
830.912	11568
831.162	11544
831.413	11613
831.664	11572
831.914	11498
832.165	11545
832.415	11533
832.666	11546
832.916	11613
833.167	11603
833.417	11593
833.667	11526
833.917	11481
834.168	11512
834.418	11477
834.668	11404
834.918	11387
835.168	11334
835.418	11310
835.668	11300
835.918	11293
836.167	11244
836.417	11109
836.667	11219
836.917	11269
837.166	11245
837.416	11221
837.666	11294
837.915	11262
838.165	11202
838.414	11225
838.663	11131
838.913	11218
839.162	11141
839.411	11324
839.661	11272
839.91	11268
840.159	11217
840.408	11271
840.657	11267
840.906	11320
841.155	11303
841.404	11275
841.653	11271
841.902	11229
842.15	11330
842.399	11392
842.648	11346
842.897	11364
843.145	11131
843.394	11154
843.642	11153
843.891	11138
844.139	10938
844.388	10820
844.636	10779
844.884	10810
845.133	10795
845.381	10860
845.629	10928
845.877	10939
846.125	10883
846.373	10912
846.621	10830
846.869	10810
847.117	10810
847.365	10677
847.613	10651
847.861	10647
848.108	10712
848.356	10727
848.604	10703
848.851	10775
849.099	10761
849.346	10846
849.594	10871
849.841	10934
850.089	10991
850.336	10975
850.583	11041
850.831	11101
851.078	11017
851.325	11013
851.572	11016
851.819	10929
852.066	10585
852.313	10396
852.56	10347
852.807	10309
853.054	10311
853.301	10288
853.548	10387
853.794	10556
854.041	10507
854.288	10550
854.534	10701
854.781	10698
855.028	10656
855.274	10684
855.52	10621
855.767	10537
856.013	10681
856.26	10964
856.506	10538
856.752	10576
856.998	10554
857.244	10559
857.49	10690
857.736	10667
857.982	10662
858.228	10596
858.474	10510
858.72	10371
858.966	10257
859.212	10203
859.458	10071
859.703	9956
859.949	9842
860.195	9863
860.44	9848
860.686	9822
860.931	9865
861.177	9720
861.422	9689
861.667	9611
861.913	9531
862.158	9547
862.403	9594
862.648	9538
862.893	9586
863.138	9642
863.384	9588
863.629	9634
863.873	9592
864.118	9623
864.363	9501
864.608	9558
864.853	9550
865.098	9390
865.342	9477
865.587	9345
865.832	9455
866.076	9317
866.321	9307
866.565	9415
866.81	9284
867.054	9262
867.298	9248
867.543	9214
867.787	9358
868.031	9286
868.275	9256
868.519	9319
868.764	9262
869.008	9264
869.252	9370
869.496	9274
869.739	9405
869.983	9358
870.227	9459
870.471	9451
870.715	9528
870.958	9569
871.202	9597
871.446	9672
871.689	9624
871.933	9608
872.176	9567
872.42	9567
872.663	9588
872.906	9623
873.15	9680
873.393	9655
873.636	9683
873.879	9612
874.122	9546
874.366	9325
874.609	9181
874.852	9144
875.095	9075
875.337	8959
875.58	8852
875.823	8848
876.066	8863
876.309	8883
876.551	8758
876.794	8713
877.037	8842
877.279	8648
877.522	8658
877.764	8726
878.007	8621
878.249	8570
878.491	8567
878.734	8587
878.976	8554
879.218	8442
879.46	8485
879.702	8392
879.945	8338
880.187	8201
880.429	8182
880.671	8133
880.912	8166
881.154	8058
881.396	8052
881.638	8142
881.88	8127
882.121	8134
882.363	8075
882.605	8156
882.846	8154
883.088	8195
883.329	8212
883.571	8304
883.812	8542
884.053	8852
884.295	9295
884.536	9549
884.777	9372
885.018	9380
885.259	9322
885.5	9153
885.742	9305
885.982	9035
886.223	8925
886.464	8815
886.705	8713
886.946	8513
887.187	8227
887.428	8178
887.668	7921
887.909	7711
888.15	7590
888.39	7568
888.631	7643
888.871	7478
889.111	7441
889.352	7308
889.592	7225
889.833	7227
890.073	7128
890.313	7166
890.553	6989
890.793	6997
891.033	6983
891.273	6983
891.513	6932
891.753	6927
891.993	6980
892.233	6958
892.473	6997
892.713	7002
892.952	6901
893.192	7046
893.432	7019
893.671	7018
893.911	6929
894.15	6945
894.39	6854
894.629	6867
894.869	6831
895.108	6798
895.347	6767
895.587	6778
895.826	6718
896.065	6745
896.304	6785
896.543	6835
896.782	6663
897.021	6751
897.26	6743
897.499	6794
897.738	6787
897.977	6727
898.216	6709
898.454	6622
898.693	6702
898.932	6621
899.17	6603
899.409	6666
899.647	6662
899.886	6615
900.124	6666
900.363	6592
900.601	6729
900.839	6805
901.078	6850
901.316	6975
901.554	7001
901.792	7102
902.03	7126
902.268	7146
902.506	7197
902.744	7024
902.982	6988
903.22	6789
903.458	6703
903.695	6575
903.933	6396
904.171	6210
904.409	6113
904.646	6006
904.884	5917
905.121	5871
905.359	5846
905.596	5741
905.833	5602
906.071	5598
906.308	5646
906.545	5577
906.783	5492
907.02	5528
907.257	5483
907.494	5479
907.731	5472
907.968	5593
908.205	5388
908.442	5371
908.679	5386
908.915	5340
909.152	5282
909.389	5177
909.626	5174
909.862	5138
910.099	5124
910.335	5155
910.572	5051
910.808	5083
911.045	5064
911.281	5068
911.518	5065
911.754	4956
911.99	4955
912.226	4908
912.463	4864
912.699	4889
912.935	4845
913.171	4810
913.407	4725
913.643	4778
913.879	4707
914.114	4673
914.35	4589
914.586	4606
914.822	4507
915.057	4567
915.293	4431
915.529	4483
915.764	4537
916	4492
916.235	4479
916.471	4461
916.706	4414
916.941	4449
917.177	4405
917.412	4449
917.647	4475
917.882	4378
918.117	4462
918.352	4442
918.588	4409
918.823	4366
919.057	4287
919.292	4181
919.527	4314
919.762	4155
919.997	4254
920.232	4151
920.466	4157
920.701	4029
920.935	4088
921.17	4052
921.405	4003
921.639	4052
921.873	4016
922.108	4027
922.342	3970
922.576	3946
922.811	3914
923.045	3949
923.279	4000
923.513	3828
923.747	3937
923.981	3876
924.215	3809
924.449	3848
924.683	3812
924.917	3794
925.151	3744
925.385	3831
925.618	3761
925.852	3802
926.086	3727
926.319	3816
926.553	3738
926.786	3731
927.02	3711
927.253	3777
927.486	3772
927.72	3691
927.953	3739
928.186	3710
928.42	3724
928.653	3712
928.886	3668
929.119	3670
929.352	3662
929.585	3668
929.818	3568
930.051	3592
930.284	3628
930.516	3501
930.749	3510
930.982	3499
931.215	3542
931.447	3460
931.68	3468
931.912	3479
932.145	3471
932.377	3491
932.61	3576
932.842	3398
933.074	3475
933.307	3422
933.539	3522
933.771	3521
934.003	3461
934.236	3513
934.468	3542
934.7	3455
934.932	3497
935.164	3427
935.395	3361
935.627	3459
935.859	3424
936.091	3408
936.323	3435
936.554	3465
936.786	3363
937.017	3347
937.249	3418
937.481	3291
937.712	3339
937.943	3373
938.175	3347
938.406	3296
938.637	3381
938.869	3293
939.1	3351
939.331	3354
939.562	3329
939.793	3311
940.024	3312
940.255	3321
940.486	3261
940.717	3229
940.948	3242
941.179	3224
941.409	3227
941.64	3207
941.871	3236
942.102	3177
942.332	3189
942.563	3220
942.793	3223
943.024	3182
943.254	3219
943.484	3237
943.715	3266
943.945	3204
944.175	3150
944.405	3130
944.636	3170
944.866	3214
945.096	3215
945.326	3163
945.556	3216
945.786	3220
946.016	3141
946.245	3116
946.475	3090
946.705	3138
946.935	3090
947.164	3087
947.394	3059
947.624	3056
947.853	3062
948.083	3034
948.312	3032
948.542	2999
948.771	2912
949	2965
949.23	2981
949.459	2992
949.688	3025
949.917	2938
950.146	2958
950.375	2976
950.604	2881
950.833	2998
951.062	3029
951.291	2946
951.52	2941
951.749	2936
951.978	2916
952.206	2912
952.435	2880
952.664	2955
952.892	2903
953.121	2917
953.349	2905
953.578	2891
953.806	2866
954.035	2826
954.263	2870
954.491	2795
954.719	2865
954.948	2774
955.176	2788
955.404	2714
955.632	2808
955.86	2789
956.088	2777
956.316	2777
956.544	2788
956.772	2739
956.999	2703
957.227	2789
957.455	2670
957.683	2695
957.91	2665
958.138	2655
958.365	2622
958.593	2614
958.82	2620
959.048	2683
959.275	2643
959.502	2614
959.73	2573
959.957	2648
960.184	2681
960.411	2576
960.638	2641
960.865	2582
961.092	2629
961.319	2511
961.546	2589
961.773	2610
962	2588
962.227	2623
962.454	2571
962.68	2534
962.907	2604
963.134	2522
963.36	2528
963.587	2565
963.813	2465
964.04	2536
964.266	2429
964.493	2550
964.719	2491
964.945	2479
965.171	2384
965.398	2441
965.624	2485
965.85	2416
966.076	2374
966.302	2452
966.528	2386
966.754	2419
966.98	2414
967.206	2395
967.431	2327
967.657	2412
967.883	2371
968.109	2390
968.334	2316
968.56	2328
968.785	2314
969.011	2304
969.236	2341
969.462	2292
969.687	2316
969.912	2334
970.138	2353
970.363	2274
970.588	2287
970.813	2254
971.038	2266
971.263	2287
971.488	2283
971.713	2327
971.938	2292
972.163	2178
972.388	2229
972.613	2179
972.838	2208
973.062	2192
973.287	2186
973.512	2151
973.736	2189
973.961	2141
974.185	2139
974.41	2159
974.634	2087
974.858	2097
975.083	2144
975.307	2186
975.531	2056
975.755	2047
975.98	2060
976.204	1989
976.428	2012
976.652	2007
976.876	1988
977.1	2026
977.324	1993
977.547	2056
977.771	2016
977.995	2008
978.219	1964
978.442	2037
978.666	1996
978.89	1991
979.113	2007
979.337	1977
979.56	1957
979.783	2010
980.007	1932
980.23	1963
980.453	1911
980.677	1957
980.9	1932
981.123	1865
981.346	1957
981.569	1928
981.792	1939
982.015	1896
982.238	1884
982.461	1899
982.684	1872
982.907	1840
983.129	1839
983.352	1881
983.575	1858
983.797	1872
984.02	1815
984.242	1838
984.465	1844
984.687	1867
984.91	1907
985.132	1869
985.354	1860
985.577	1844
985.799	1797
986.021	1750
986.243	1774
986.465	1793
986.687	1823
986.909	1858
987.131	1807
987.353	1769
987.575	1819
987.797	1755
988.019	1682
988.241	1737
988.462	1723
988.684	1763
988.906	1812
989.127	1817
989.349	1696
989.57	1770
989.792	1780
990.013	1800
990.234	1799
990.456	1825
990.677	1776
990.898	1750
991.119	1728
991.341	1765
991.562	1688
991.783	1735
992.004	1664
992.225	1644
992.446	1712
992.667	1623
992.887	1724
993.108	1596
993.329	1736
993.55	1682
993.77	1642
993.991	1623
994.212	1670
994.432	1617
994.653	1659
994.873	1637
995.093	1538
995.314	1608
995.534	1675
995.754	1668
995.975	1707
996.195	1599
996.415	1649
996.635	1669
996.855	1671
997.075	1643
997.295	1659
997.515	1630
997.735	1673
997.955	1629
998.174	1669
998.394	1617
998.614	1661
998.834	1602
999.053	1659
999.273	1634
999.492	1672
999.712	1636
999.931	1559
1000.151	1620
1000.37	1592
1000.589	1657
1000.809	1541
1001.028	1697
1001.247	1614
1001.466	1497
1001.685	1647
1001.904	1583
1002.123	1577
1002.342	1561
1002.561	1523
1002.78	1550
1002.999	1626
1003.218	1547
1003.436	1524
1003.655	1601
1003.874	1530
1004.092	1564
1004.311	1604
1004.53	1575
1004.748	1613
1004.966	1554
1005.185	1588
1005.403	1605
1005.622	1568
1005.84	1639
1006.058	1579
1006.276	1577
1006.494	2090
1006.712	1578
1006.931	1671
1007.149	1565
1007.367	1614
1007.584	1632
1007.802	1693
1008.02	1653
1008.238	1775
1008.456	1763
1008.673	1668
1008.891	1777
1009.109	1747
1009.326	1885
1009.544	1978
1009.761	1930
1009.979	2064
1010.196	2142
1010.413	2318
1010.631	2465
1010.848	2544
1011.065	2574
1011.282	2520
1011.5	2476
1011.717	2565
1011.934	2498
1012.151	2553
1012.368	2508
1012.585	2427
1012.801	2542
1013.018	2481
1013.235	2458
1013.452	2515
1013.669	2526
1013.885	2515
1014.102	2581
1014.318	2566
1014.535	2564
1014.751	2543
1014.968	2530
1015.184	2549
1015.401	2459
1015.617	2476
1015.833	2388
1016.049	2429
1016.266	2384
1016.482	2357
1016.698	2291
1016.914	2317
1017.13	2253
1017.346	2273
1017.562	2293
1017.778	2251
1017.993	2222
1018.209	2298
1018.425	2250
1018.641	2218
1018.856	2186
1019.072	2230
1019.288	2252
1019.503	2208
1019.719	2159
1019.934	2137
1020.149	2230
1020.365	2153
1020.58	2021
1020.795	2104
1021.011	1999
1021.226	1915
1021.441	1929
1021.656	1837
1021.871	1714
1022.086	1745
1022.301	1695
1022.516	1690
1022.731	1719
1022.946	1623
1023.16	1589
1023.375	1537
1023.59	1491
1023.804	1447
1024.019	1542
1024.234	1397
1024.448	1397
1024.663	1314
1024.877	1312
1025.092	1323
1025.306	1297
1025.52	1196
1025.734	1299
1025.949	1180
1026.163	1134
1026.377	1080
1026.591	1116
1026.805	1032
1027.019	1021
1027.233	1006
1027.447	944
1027.661	1039
1027.875	968
1028.088	983
1028.302	908
1028.516	886
1028.73	858
1028.943	866
1029.157	768
1029.37	741
1029.584	-1
1029.797	-2
1030.011	-1
1030.224	-1
