Data from QEP037381__68__15-20-35-862.txt Node

Date: Fri Dec 16 15:20:35 EST 2022
User: dcclab
Spectrometer: QEP03738
Trigger mode: 4
Integration Time (sec): 1.000000E1
Scans to average: 1
Electric dark correction enabled: true
Nonlinearity correction enabled: false
Boxcar width: 0
XAxis mode: Wavelengths
Number of Pixels in Spectrum: 1044
>>>>>Begin Spectral Data<<<<<
784.041	15
784.3	0
784.558	-5
784.817	-4
785.075	88804
785.334	15589
785.592	7330
785.851	5092
786.109	3902
786.368	2997
786.626	2437
786.884	2061
787.143	1731
787.401	1447
787.659	1322
787.917	1129
788.175	1032
788.433	901
788.691	817
788.949	764
789.207	743
789.465	636
789.723	623
789.98	569
790.238	614
790.496	583
790.753	544
791.011	588
791.268	536
791.526	514
791.783	545
792.041	516
792.298	425
792.556	505
792.813	486
793.07	467
793.327	440
793.584	548
793.841	445
794.099	476
794.356	524
794.613	444
794.869	463
795.126	451
795.383	437
795.64	457
795.897	406
796.153	448
796.41	451
796.667	430
796.923	449
797.18	451
797.436	470
797.693	435
797.949	483
798.206	514
798.462	434
798.718	488
798.974	481
799.231	522
799.487	513
799.743	521
799.999	558
800.255	540
800.511	537
800.767	574
801.023	567
801.279	617
801.534	661
801.79	713
802.046	762
802.302	937
802.557	1069
802.813	1371
803.068	1711
803.324	2382
803.579	3240
803.835	4482
804.09	6219
804.345	8201
804.601	10430
804.856	12601
805.111	14551
805.366	16050
805.621	17195
805.876	17995
806.131	18477
806.386	18909
806.641	19181
806.896	19653
807.151	19989
807.406	20390
807.661	20749
807.915	21177
808.17	21464
808.425	21684
808.679	21882
808.934	22297
809.188	22490
809.443	22821
809.697	23077
809.951	23182
810.206	23433
810.46	23691
810.714	23936
810.968	24293
811.223	24305
811.477	24691
811.731	24873
811.985	24995
812.239	25128
812.493	25223
812.747	25447
813	25443
813.254	25651
813.508	25693
813.762	25885
814.015	25866
814.269	26157
814.522	26526
814.776	26813
815.03	27137
815.283	27538
815.536	28027
815.79	28410
816.043	28938
816.296	29268
816.55	29558
816.803	30008
817.056	30520
817.309	30764
817.562	31095
817.815	31394
818.068	31606
818.321	31912
818.574	32434
818.827	32715
819.079	33178
819.332	33747
819.585	34362
819.838	34652
820.09	34807
820.343	35295
820.595	35422
820.848	35686
821.1	35998
821.353	35953
821.605	35991
821.857	35806
822.11	35572
822.362	35696
822.614	35687
822.866	35607
823.118	35593
823.37	35842
823.622	35925
823.874	35991
824.126	36288
824.378	36271
824.63	36440
824.882	36327
825.134	36470
825.385	36306
825.637	36359
825.888	36165
826.14	36232
826.392	36082
826.643	35871
826.895	35892
827.146	35761
827.397	35613
827.649	35749
827.9	35678
828.151	35750
828.402	35851
828.653	35805
828.905	35966
829.156	36222
829.407	36058
829.658	36036
829.909	36098
830.159	36142
830.41	35971
830.661	35788
830.912	35554
831.162	35549
831.413	35455
831.664	35537
831.914	35468
832.165	35379
832.415	35431
832.666	35524
832.916	35358
833.167	35493
833.417	35431
833.667	35240
833.917	35151
834.168	35277
834.418	35102
834.668	34890
834.918	34840
835.168	34738
835.418	34542
835.668	34522
835.918	34466
836.167	34455
836.417	34165
836.667	34220
836.917	34216
837.166	34258
837.416	34220
837.666	34256
837.915	34142
838.165	34062
838.414	34004
838.663	33908
838.913	33937
839.162	33819
839.411	33968
839.661	33764
839.91	33718
840.159	33452
840.408	33588
840.657	33689
840.906	33696
841.155	33713
841.404	33736
841.653	33702
841.902	33582
842.15	33724
842.399	33749
842.648	33575
842.897	33592
843.145	33409
843.394	33175
843.642	33025
843.891	32884
844.139	32721
844.388	32569
844.636	32397
844.884	32573
845.133	32432
845.381	32373
845.629	32562
845.877	32475
846.125	32360
846.373	32373
846.621	32168
846.869	32167
847.117	31915
847.365	31722
847.613	31607
847.861	31524
848.108	31508
848.356	31442
848.604	31369
848.851	31483
849.099	31494
849.346	31537
849.594	31654
849.841	31910
850.089	31927
850.336	31935
850.583	31800
850.831	31752
851.078	31525
851.325	31738
851.572	31624
851.819	31351
852.066	30847
852.313	30370
852.56	30015
852.807	30083
853.054	29921
853.301	29920
853.548	30013
853.794	30354
854.041	30196
854.288	30377
854.534	30576
854.781	30681
855.028	30530
855.274	30591
855.52	30360
855.767	30147
856.013	30231
856.26	30446
856.506	29921
856.752	29934
856.998	30016
857.244	29942
857.49	30257
857.736	30193
857.982	30198
858.228	30084
858.474	30026
858.72	29751
858.966	29494
859.212	29272
859.458	28939
859.703	28669
859.949	28382
860.195	28414
860.44	28206
860.686	28099
860.931	28082
861.177	27900
861.422	27644
861.667	27776
861.913	27677
862.158	27654
862.403	27801
862.648	28003
862.893	27814
863.138	27904
863.384	27848
863.629	27825
863.873	27862
864.118	27710
864.363	27615
864.608	27537
864.853	27454
865.098	27414
865.342	27221
865.587	27106
865.832	27185
866.076	27102
866.321	27000
866.565	26961
866.81	26900
867.054	26756
867.298	26801
867.543	26473
867.787	26625
868.031	26472
868.275	26491
868.519	26502
868.764	26434
869.008	26531
869.252	26345
869.496	26317
869.739	26237
869.983	26280
870.227	26295
870.471	26322
870.715	26310
870.958	26467
871.202	26519
871.446	26514
871.689	26455
871.933	26592
872.176	26566
872.42	26480
872.663	26479
872.906	26204
873.15	26228
873.393	26113
873.636	25987
873.879	25824
874.122	25602
874.366	25325
874.609	25064
874.852	24897
875.095	24897
875.337	24857
875.58	24630
875.823	24567
876.066	24549
876.309	24486
876.551	24140
876.794	24157
877.037	24119
877.279	24005
877.522	24091
877.764	24054
878.007	24081
878.249	24029
878.491	23957
878.734	23914
878.976	23904
879.218	23724
879.46	23752
879.702	23502
879.945	23331
880.187	23176
880.429	23015
880.671	22870
880.912	22860
881.154	22855
881.396	22677
881.638	22762
881.88	22711
882.121	22712
882.363	22757
882.605	22578
882.846	22538
883.088	22550
883.329	22480
883.571	22480
883.812	22547
884.053	22984
884.295	23216
884.536	23431
884.777	23411
885.018	23265
885.259	23229
885.5	23165
885.742	23322
885.982	22968
886.223	22854
886.464	22631
886.705	22526
886.946	22365
887.187	22063
887.428	21829
887.668	21483
887.909	21244
888.15	21122
888.39	20970
888.631	20830
888.871	20709
889.111	20535
889.352	20464
889.592	20207
889.833	20128
890.073	19990
890.313	20000
890.553	19769
890.793	19684
891.033	19605
891.273	19445
891.513	19435
891.753	19507
891.993	19510
892.233	19418
892.473	19601
892.713	19558
892.952	19557
893.192	19529
893.432	19521
893.671	19659
893.911	19376
894.15	19292
894.39	19026
894.629	19089
894.869	19067
895.108	18942
895.347	18851
895.587	18861
895.826	18696
896.065	18827
896.304	18842
896.543	18750
896.782	18605
897.021	18694
897.26	18674
897.499	18559
897.738	18667
897.977	18448
898.216	18317
898.454	18174
898.693	18119
898.932	18179
899.17	17926
899.409	17989
899.647	18060
899.886	17922
900.124	18019
900.363	17984
900.601	18023
900.839	18128
901.078	18160
901.316	18205
901.554	18298
901.792	18338
902.03	18340
902.268	18375
902.506	18413
902.744	18155
902.982	18117
903.22	17734
903.458	17512
903.695	17227
903.933	17018
904.171	16666
904.409	16566
904.646	16250
904.884	16089
905.121	15973
905.359	15697
905.596	15563
905.833	15395
906.071	15335
906.308	15260
906.545	15288
906.783	15144
907.02	15194
907.257	15069
907.494	15023
907.731	14975
907.968	14918
908.205	14810
908.442	14650
908.679	14676
908.915	14444
909.152	14356
909.389	14253
909.626	14163
909.862	14144
910.099	14139
910.335	14071
910.572	13878
910.808	13911
911.045	13856
911.281	13759
911.518	13742
911.754	13614
911.99	13572
912.226	13462
912.463	13371
912.699	13312
912.935	13227
913.171	13065
913.407	12895
913.643	12965
913.879	12762
914.114	12645
914.35	12559
914.586	12492
914.822	12377
915.057	12355
915.293	12126
915.529	12156
915.764	12121
916	12156
916.235	12099
916.471	12064
916.706	11930
916.941	12082
917.177	11968
917.412	11946
917.647	11909
917.882	11891
918.117	11953
918.352	11839
918.588	11848
918.823	11711
919.057	11628
919.292	11449
919.527	11460
919.762	11331
919.997	11300
920.232	11050
920.466	11044
920.701	10843
920.935	10899
921.17	10778
921.405	10749
921.639	10780
921.873	10646
922.108	10651
922.342	10602
922.576	10567
922.811	10502
923.045	10517
923.279	10559
923.513	10324
923.747	10451
923.981	10364
924.215	10173
924.449	10179
924.683	10105
924.917	10027
925.151	10024
925.385	10017
925.618	9996
925.852	9898
926.086	9777
926.319	9914
926.553	9902
926.786	9914
927.02	9889
927.253	9911
927.486	9866
927.72	9770
927.953	9836
928.186	9770
928.42	9783
928.653	9646
928.886	9590
929.119	9639
929.352	9504
929.585	9457
929.818	9442
930.051	9415
930.284	9251
930.516	9119
930.749	9170
930.982	9101
931.215	9085
931.447	8918
931.68	8971
931.912	8932
932.145	8940
932.377	8937
932.61	9011
932.842	8888
933.074	8951
933.307	8887
933.539	8988
933.771	8952
934.003	8826
934.236	8961
934.468	8936
934.7	8874
934.932	8888
935.164	8777
935.395	8763
935.627	8805
935.859	8700
936.091	8704
936.323	8695
936.554	8654
936.786	8557
937.017	8560
937.249	8644
937.481	8463
937.712	8527
937.943	8467
938.175	8455
938.406	8466
938.637	8458
938.869	8338
939.1	8375
939.331	8360
939.562	8379
939.793	8328
940.024	8332
940.255	8231
940.486	8144
940.717	8201
940.948	8196
941.179	8036
941.409	8093
941.64	8079
941.871	8092
942.102	8101
942.332	8088
942.563	8133
942.793	8038
943.024	8026
943.254	8015
943.484	8077
943.715	8121
943.945	8080
944.175	7989
944.405	7934
944.636	7920
944.866	7932
945.096	7982
945.326	7861
945.556	7897
945.786	7961
946.016	7784
946.245	7719
946.475	7707
946.705	7670
946.935	7598
947.164	7568
947.394	7514
947.624	7559
947.853	7452
948.083	7454
948.312	7388
948.542	7317
948.771	7332
949	7336
949.23	7263
949.459	7287
949.688	7400
949.917	7258
950.146	7273
950.375	7335
950.604	7247
950.833	7284
951.062	7285
951.291	7194
951.52	7127
951.749	7133
951.978	7112
952.206	7098
952.435	7120
952.664	7135
952.892	7059
953.121	6971
953.349	6986
953.578	6942
953.806	6917
954.035	6878
954.263	6830
954.491	6805
954.719	6837
954.948	6692
955.176	6728
955.404	6683
955.632	6617
955.86	6602
956.088	6579
956.316	6565
956.544	6592
956.772	6567
956.999	6517
957.227	6501
957.455	6404
957.683	6349
957.91	6282
958.138	6267
958.365	6295
958.593	6197
958.82	6156
959.048	6237
959.275	6176
959.502	6105
959.73	6112
959.957	6172
960.184	6134
960.411	6059
960.638	6175
960.865	6041
961.092	6035
961.319	5982
961.546	6097
961.773	6089
962	6020
962.227	6009
962.454	5981
962.68	5926
962.907	5934
963.134	5866
963.36	5854
963.587	5856
963.813	5728
964.04	5728
964.266	5689
964.493	5747
964.719	5707
964.945	5714
965.171	5603
965.398	5633
965.624	5584
965.85	5447
966.076	5474
966.302	5510
966.528	5496
966.754	5468
966.98	5403
967.206	5451
967.431	5353
967.657	5365
967.883	5367
968.109	5407
968.334	5290
968.56	5316
968.785	5226
969.011	5177
969.236	5250
969.462	5209
969.687	5236
969.912	5207
970.138	5235
970.363	5119
970.588	5138
970.813	5055
971.038	5078
971.263	5068
971.488	5049
971.713	5109
971.938	5065
972.163	4969
972.388	4925
972.613	4919
972.838	4954
973.062	4928
973.287	4869
973.512	4805
973.736	4825
973.961	4796
974.185	4772
974.41	4820
974.634	4661
974.858	4646
975.083	4645
975.307	4654
975.531	4585
975.755	4532
975.98	4558
976.204	4449
976.428	4479
976.652	4435
976.876	4436
977.1	4459
977.324	4403
977.547	4427
977.771	4394
977.995	4346
978.219	4352
978.442	4405
978.666	4344
978.89	4288
979.113	4298
979.337	4272
979.56	4218
979.783	4317
980.007	4186
980.23	4252
980.453	4151
980.677	4196
980.9	4187
981.123	4094
981.346	4167
981.569	4125
981.792	4118
982.015	4092
982.238	4000
982.461	4007
982.684	3951
982.907	3922
983.129	3918
983.352	3938
983.575	3912
983.797	3934
984.02	3836
984.242	3816
984.465	3845
984.687	3789
984.91	3868
985.132	3794
985.354	3795
985.577	3773
985.799	3725
986.021	3690
986.243	3662
986.465	3650
986.687	3673
986.909	3709
987.131	3634
987.353	3604
987.575	3596
987.797	3612
988.019	3520
988.241	3572
988.462	3505
988.684	3556
988.906	3591
989.127	3577
989.349	3461
989.57	3509
989.792	3516
990.013	3512
990.234	3510
990.456	3499
990.677	3492
990.898	3421
991.119	3434
991.341	3415
991.562	3376
991.783	3397
992.004	3309
992.225	3252
992.446	3314
992.667	3200
992.887	3309
993.108	3165
993.329	3297
993.55	3228
993.77	3131
993.991	3117
994.212	3159
994.432	3123
994.653	3166
994.873	3148
995.093	3075
995.314	3052
995.534	3121
995.754	3101
995.975	3124
996.195	2993
996.415	3088
996.635	3027
996.855	3055
997.075	3021
997.295	2990
997.515	2985
997.735	3025
997.955	2996
998.174	2959
998.394	2951
998.614	2996
998.834	2909
999.053	3001
999.273	2918
999.492	2994
999.712	2916
999.931	2848
1000.151	2938
1000.37	2900
1000.589	2891
1000.809	2813
1001.028	2910
1001.247	2871
1001.466	2722
1001.685	2845
1001.904	2794
1002.123	2758
1002.342	2776
1002.561	2718
1002.78	2700
1002.999	2777
1003.218	2707
1003.436	2662
1003.655	2711
1003.874	2633
1004.092	2639
1004.311	2659
1004.53	2626
1004.748	2691
1004.966	2616
1005.185	2652
1005.403	2635
1005.622	2589
1005.84	2675
1006.058	2563
1006.276	2593
1006.494	3135
1006.712	2595
1006.931	2608
1007.149	2572
1007.367	2557
1007.584	2624
1007.802	2627
1008.02	2572
1008.238	2699
1008.456	2711
1008.673	2557
1008.891	2700
1009.109	2648
1009.326	2726
1009.544	2798
1009.761	2781
1009.979	2867
1010.196	2923
1010.413	3045
1010.631	3170
1010.848	3236
1011.065	3259
1011.282	3170
1011.5	3151
1011.717	3218
1011.934	3170
1012.151	3239
1012.368	3167
1012.585	3118
1012.801	3187
1013.018	3160
1013.235	3177
1013.452	3164
1013.669	3157
1013.885	3160
1014.102	3202
1014.318	3144
1014.535	3145
1014.751	3193
1014.968	3152
1015.184	3173
1015.401	3091
1015.617	3111
1015.833	2998
1016.049	3044
1016.266	3003
1016.482	2972
1016.698	2917
1016.914	2964
1017.13	2879
1017.346	2868
1017.562	2929
1017.778	2864
1017.993	2821
1018.209	2902
1018.425	2850
1018.641	2829
1018.856	2817
1019.072	2853
1019.288	2848
1019.503	2839
1019.719	2749
1019.934	2729
1020.149	2826
1020.365	2748
1020.58	2695
1020.795	2653
1021.011	2636
1021.226	2523
1021.441	2557
1021.656	2450
1021.871	2346
1022.086	2347
1022.301	2301
1022.516	2294
1022.731	2301
1022.946	2218
1023.16	2152
1023.375	2130
1023.59	2098
1023.804	2023
1024.019	2084
1024.234	1950
1024.448	1982
1024.663	1867
1024.877	1861
1025.092	1848
1025.306	1847
1025.52	1738
1025.734	1799
1025.949	1660
1026.163	1628
1026.377	1589
1026.591	1586
1026.805	1514
1027.019	1502
1027.233	1467
1027.447	1398
1027.661	1458
1027.875	1399
1028.088	1402
1028.302	1324
1028.516	1310
1028.73	1252
1028.943	1248
1029.157	1171
1029.37	1091
1029.584	0
1029.797	-3
1030.011	-3
1030.224	0
