Data from QEP037381__24__15-13-15-856.txt Node

Date: Fri Dec 16 15:13:15 EST 2022
User: dcclab
Spectrometer: QEP03738
Trigger mode: 4
Integration Time (sec): 1.000000E1
Scans to average: 1
Electric dark correction enabled: true
Nonlinearity correction enabled: false
Boxcar width: 0
XAxis mode: Wavelengths
Number of Pixels in Spectrum: 1044
>>>>>Begin Spectral Data<<<<<
784.041	13
784.3	0
784.558	-2
784.817	-5
785.075	88592
785.334	15358
785.592	7268
785.851	4992
786.109	3773
786.368	2956
786.626	2386
786.884	2021
787.143	1693
787.401	1423
787.659	1283
787.917	1101
788.175	1004
788.433	911
788.691	812
788.949	764
789.207	730
789.465	647
789.723	621
789.98	587
790.238	616
790.496	573
790.753	544
791.011	592
791.268	536
791.526	530
791.783	533
792.041	525
792.298	440
792.556	500
792.813	490
793.07	477
793.327	450
793.584	525
793.841	453
794.099	479
794.356	541
794.613	428
794.869	477
795.126	449
795.383	415
795.64	448
795.897	411
796.153	464
796.41	447
796.667	436
796.923	447
797.18	444
797.436	474
797.693	424
797.949	491
798.206	501
798.462	424
798.718	491
798.974	485
799.231	521
799.487	489
799.743	523
799.999	546
800.255	524
800.511	515
800.767	593
801.023	571
801.279	619
801.534	660
801.79	707
802.046	756
802.302	902
802.557	1036
802.813	1305
803.068	1658
803.324	2288
803.579	3127
803.835	4360
804.09	6039
804.345	8002
804.601	10173
804.856	12227
805.111	14265
805.366	15671
805.621	16820
805.876	17551
806.131	18057
806.386	18393
806.641	18715
806.896	19017
807.151	19323
807.406	19806
807.661	20145
807.915	20616
808.17	20806
808.425	21104
808.679	21425
808.934	21730
809.188	21891
809.443	22245
809.697	22526
809.951	22666
810.206	22872
810.46	23180
810.714	23377
810.968	23617
811.223	23838
811.477	24115
811.731	24255
811.985	24438
812.239	24745
812.493	24730
812.747	24973
813	24954
813.254	25067
813.508	25299
813.762	25338
814.015	25530
814.269	25608
814.522	26052
814.776	26332
815.03	26750
815.283	27197
815.536	27659
815.79	28014
816.043	28548
816.296	28899
816.55	29276
816.803	29554
817.056	30066
817.309	30366
817.562	30689
817.815	31057
818.068	31221
818.321	31605
818.574	32177
818.827	32534
819.079	33028
819.332	33662
819.585	33989
819.838	34376
820.09	34752
820.343	35011
820.595	35197
820.848	35520
821.1	35436
821.353	35587
821.605	35675
821.857	35654
822.11	35508
822.362	35525
822.614	35395
822.866	35483
823.118	35276
823.37	35582
823.622	35774
823.874	35819
824.126	35925
824.378	36066
824.63	36332
824.882	36293
825.134	36354
825.385	36273
825.637	36197
825.888	36060
826.14	36004
826.392	36010
826.643	35792
826.895	35705
827.146	35653
827.397	35588
827.649	35541
827.9	35496
828.151	35645
828.402	35698
828.653	35947
828.905	36068
829.156	36085
829.407	36021
829.658	36045
829.909	36157
830.159	36061
830.41	35928
830.661	35696
830.912	35425
831.162	35555
831.413	35423
831.664	35508
831.914	35448
832.165	35453
832.415	35469
832.666	35346
832.916	35542
833.167	35569
833.417	35552
833.667	35354
833.917	35327
834.168	35151
834.418	35028
834.668	34964
834.918	34826
835.168	34616
835.418	34626
835.668	34526
835.918	34390
836.167	34394
836.417	34512
836.667	34383
836.917	34335
837.166	34195
837.416	34287
837.666	34156
837.915	34212
838.165	34190
838.414	34012
838.663	33998
838.913	33948
839.162	33972
839.411	33985
839.661	33791
839.91	33698
840.159	33650
840.408	33707
840.657	33726
840.906	33878
841.155	33753
841.404	33840
841.653	33853
841.902	33819
842.15	33810
842.399	33743
842.648	33676
842.897	33666
843.145	33413
843.394	33268
843.642	33137
843.891	33102
844.139	32776
844.388	32682
844.636	32698
844.884	32714
845.133	32537
845.381	32560
845.629	32558
845.877	32579
846.125	32465
846.373	32600
846.621	32410
846.869	32280
847.117	32223
847.365	31893
847.613	31866
847.861	31760
848.108	31727
848.356	31672
848.604	31698
848.851	31706
849.099	31772
849.346	31810
849.594	32005
849.841	32172
850.089	31979
850.336	32272
850.583	32209
850.831	32122
851.078	31847
851.325	31982
851.572	31958
851.819	31733
852.066	31078
852.313	30668
852.56	30558
852.807	30421
853.054	30261
853.301	30158
853.548	30266
853.794	30437
854.041	30562
854.288	30748
854.534	30890
854.781	30847
855.028	30845
855.274	30782
855.52	30568
855.767	30422
856.013	30369
856.26	30739
856.506	30172
856.752	30117
856.998	30161
857.244	30298
857.49	30357
857.736	30393
857.982	30546
858.228	30382
858.474	30247
858.72	30055
858.966	30021
859.212	29689
859.458	29332
859.703	29097
859.949	28817
860.195	28815
860.44	28614
860.686	28426
860.931	28347
861.177	28250
861.422	28080
861.667	28035
861.913	28085
862.158	28008
862.403	28308
862.648	28443
862.893	28368
863.138	28376
863.384	28342
863.629	28306
863.873	28206
864.118	28127
864.363	28100
864.608	28047
864.853	27950
865.098	27714
865.342	27682
865.587	27623
865.832	27662
866.076	27559
866.321	27496
866.565	27423
866.81	27274
867.054	27257
867.298	27206
867.543	27103
867.787	27075
868.031	27050
868.275	26938
868.519	26978
868.764	27114
869.008	26883
869.252	27006
869.496	26786
869.739	26664
869.983	26841
870.227	26722
870.471	26728
870.715	26861
870.958	26894
871.202	26908
871.446	27051
871.689	27048
871.933	26966
872.176	26957
872.42	26861
872.663	26816
872.906	26818
873.15	26749
873.393	26544
873.636	26423
873.879	26202
874.122	25935
874.366	25679
874.609	25570
874.852	25474
875.095	25400
875.337	25388
875.58	25101
875.823	25021
876.066	25099
876.309	25101
876.551	24879
876.794	24682
877.037	24865
877.279	24733
877.522	24702
877.764	24750
878.007	24770
878.249	24662
878.491	24581
878.734	24662
878.976	24495
879.218	24442
879.46	24306
879.702	24088
879.945	24003
880.187	23688
880.429	23710
880.671	23544
880.912	23617
881.154	23524
881.396	23337
881.638	23509
881.88	23419
882.121	23289
882.363	23334
882.605	23323
882.846	23223
883.088	23271
883.329	23189
883.571	23076
883.812	23185
884.053	23424
884.295	23682
884.536	23895
884.777	23867
885.018	23758
885.259	23752
885.5	23687
885.742	23828
885.982	23559
886.223	23426
886.464	23350
886.705	23174
886.946	23094
887.187	22560
887.428	22503
887.668	22176
887.909	21969
888.15	21724
888.39	21747
888.631	21523
888.871	21420
889.111	21303
889.352	21171
889.592	21050
889.833	20896
890.073	20822
890.313	20702
890.553	20536
890.793	20440
891.033	20379
891.273	20355
891.513	20131
891.753	20260
891.993	20197
892.233	20245
892.473	20399
892.713	20342
892.952	20277
893.192	20419
893.432	20298
893.671	20274
893.911	20151
894.15	20092
894.39	19968
894.629	19909
894.869	19872
895.108	19769
895.347	19614
895.587	19632
895.826	19534
896.065	19533
896.304	19554
896.543	19537
896.782	19346
897.021	19476
897.26	19491
897.499	19502
897.738	19474
897.977	19290
898.216	19101
898.454	19045
898.693	18927
898.932	18948
899.17	18780
899.409	18770
899.647	18708
899.886	18773
900.124	18845
900.363	18806
900.601	18796
900.839	18869
901.078	18977
901.316	18985
901.554	18971
901.792	19152
902.03	19044
902.268	19128
902.506	19106
902.744	18929
902.982	18835
903.22	18485
903.458	18313
903.695	18067
903.933	17820
904.171	17522
904.409	17244
904.646	17111
904.884	16745
905.121	16656
905.359	16408
905.596	16292
905.833	16109
906.071	16018
906.308	16096
906.545	15954
906.783	15886
907.02	15872
907.257	15773
907.494	15663
907.731	15725
907.968	15635
908.205	15557
908.442	15424
908.679	15325
908.915	15229
909.152	15117
909.389	14861
909.626	14882
909.862	14811
910.099	14825
910.335	14770
910.572	14595
910.808	14690
911.045	14535
911.281	14420
911.518	14479
911.754	14266
911.99	14255
912.226	14165
912.463	14108
912.699	13910
912.935	13861
913.171	13731
913.407	13556
913.643	13553
913.879	13404
914.114	13356
914.35	13267
914.586	13170
914.822	12993
915.057	13021
915.293	12776
915.529	12811
915.764	12858
916	12717
916.235	12751
916.471	12774
916.706	12678
916.941	12656
917.177	12652
917.412	12614
917.647	12637
917.882	12607
918.117	12670
918.352	12477
918.588	12480
918.823	12482
919.057	12343
919.292	12067
919.527	12100
919.762	11924
919.997	11791
920.232	11696
920.466	11656
920.701	11535
920.935	11481
921.17	11378
921.405	11302
921.639	11329
921.873	11294
922.108	11261
922.342	11202
922.576	11168
922.811	11130
923.045	11099
923.279	11119
923.513	10912
923.747	10939
923.981	10842
924.215	10733
924.449	10696
924.683	10569
924.917	10604
925.151	10538
925.385	10629
925.618	10509
925.852	10503
926.086	10397
926.319	10451
926.553	10449
926.786	10450
927.02	10359
927.253	10446
927.486	10362
927.72	10285
927.953	10407
928.186	10305
928.42	10299
928.653	10180
928.886	10172
929.119	10176
929.352	10116
929.585	10029
929.818	9988
930.051	9977
930.284	9815
930.516	9726
930.749	9651
930.982	9656
931.215	9613
931.447	9504
931.68	9471
931.912	9490
932.145	9463
932.377	9489
932.61	9587
932.842	9459
933.074	9482
933.307	9448
933.539	9486
933.771	9530
934.003	9426
934.236	9492
934.468	9506
934.7	9422
934.932	9370
935.164	9377
935.395	9370
935.627	9345
935.859	9276
936.091	9160
936.323	9257
936.554	9187
936.786	9124
937.017	9012
937.249	9084
937.481	8995
937.712	9023
937.943	8972
938.175	8944
938.406	8938
938.637	8992
938.869	8889
939.1	8960
939.331	8842
939.562	8886
939.793	8845
940.024	8821
940.255	8836
940.486	8719
940.717	8672
940.948	8647
941.179	8536
941.409	8653
941.64	8612
941.871	8611
942.102	8589
942.332	8585
942.563	8638
942.793	8558
943.024	8519
943.254	8587
943.484	8561
943.715	8602
943.945	8610
944.175	8460
944.405	8461
944.636	8470
944.866	8507
945.096	8461
945.326	8427
945.556	8433
945.786	8360
946.016	8242
946.245	8225
946.475	8129
946.705	8163
946.935	8136
947.164	8050
947.394	8018
947.624	7971
947.853	7936
948.083	7948
948.312	7890
948.542	7838
948.771	7781
949	7765
949.23	7769
949.459	7783
949.688	7867
949.917	7813
950.146	7710
950.375	7782
950.604	7710
950.833	7789
951.062	7710
951.291	7660
951.52	7628
951.749	7638
951.978	7498
952.206	7550
952.435	7483
952.664	7559
952.892	7530
953.121	7463
953.349	7483
953.578	7394
953.806	7394
954.035	7297
954.263	7325
954.491	7278
954.719	7272
954.948	7186
955.176	7140
955.404	7088
955.632	7087
955.86	7096
956.088	7032
956.316	7059
956.544	7057
956.772	6908
956.999	6900
957.227	6970
957.455	6829
957.683	6782
957.91	6698
958.138	6696
958.365	6682
958.593	6667
958.82	6591
959.048	6660
959.275	6520
959.502	6543
959.73	6540
959.957	6527
960.184	6555
960.411	6480
960.638	6544
960.865	6551
961.092	6508
961.319	6388
961.546	6491
961.773	6511
962	6470
962.227	6500
962.454	6423
962.68	6406
962.907	6402
963.134	6227
963.36	6238
963.587	6268
963.813	6144
964.04	6114
964.266	6106
964.493	6133
964.719	6116
964.945	6052
965.171	5953
965.398	5991
965.624	5969
965.85	5897
966.076	5852
966.302	5930
966.528	5838
966.754	5833
966.98	5777
967.206	5807
967.431	5659
967.657	5789
967.883	5747
968.109	5738
968.334	5673
968.56	5650
968.785	5650
969.011	5596
969.236	5639
969.462	5581
969.687	5559
969.912	5604
970.138	5625
970.363	5429
970.588	5504
970.813	5477
971.038	5390
971.263	5436
971.488	5470
971.713	5448
971.938	5384
972.163	5337
972.388	5282
972.613	5270
972.838	5252
973.062	5237
973.287	5261
973.512	5142
973.736	5155
973.961	5146
974.185	5086
974.41	5075
974.634	5001
974.858	4969
975.083	5024
975.307	4979
975.531	4888
975.755	4847
975.98	4825
976.204	4784
976.428	4795
976.652	4792
976.876	4790
977.1	4757
977.324	4653
977.547	4744
977.771	4772
977.995	4673
978.219	4612
978.442	4731
978.666	4625
978.89	4596
979.113	4594
979.337	4565
979.56	4555
979.783	4612
980.007	4492
980.23	4525
980.453	4470
980.677	4526
980.9	4462
981.123	4384
981.346	4455
981.569	4455
981.792	4420
982.015	4348
982.238	4286
982.461	4302
982.684	4226
982.907	4202
983.129	4179
983.352	4265
983.575	4150
983.797	4208
984.02	4124
984.242	4113
984.465	4132
984.687	4112
984.91	4140
985.132	4099
985.354	4046
985.577	4040
985.799	4053
986.021	3835
986.243	3911
986.465	3945
986.687	3938
986.909	3987
987.131	3920
987.353	3839
987.575	3927
987.797	3851
988.019	3785
988.241	3821
988.462	3783
988.684	3809
988.906	3817
989.127	3884
989.349	3692
989.57	3753
989.792	3784
990.013	3770
990.234	3791
990.456	3776
990.677	3756
990.898	3675
991.119	3615
991.341	3708
991.562	3598
991.783	3641
992.004	3560
992.225	3503
992.446	3541
992.667	3442
992.887	3538
993.108	3430
993.329	3552
993.55	3433
993.77	3400
993.991	3370
994.212	3391
994.432	3390
994.653	3326
994.873	3322
995.093	3212
995.314	3262
995.534	3318
995.754	3319
995.975	3298
996.195	3221
996.415	3249
996.635	3241
996.855	3245
997.075	3213
997.295	3187
997.515	3162
997.735	3196
997.955	3197
998.174	3163
998.394	3110
998.614	3192
998.834	3092
999.053	3170
999.273	3120
999.492	3179
999.712	3087
999.931	3073
1000.151	3078
1000.37	3044
1000.589	3081
1000.809	3014
1001.028	3066
1001.247	3027
1001.466	2905
1001.685	3045
1001.904	2974
1002.123	2949
1002.342	2886
1002.561	2834
1002.78	2894
1002.999	2945
1003.218	2902
1003.436	2837
1003.655	2875
1003.874	2793
1004.092	2792
1004.311	2847
1004.53	2784
1004.748	2827
1004.966	2753
1005.185	2832
1005.403	2819
1005.622	2737
1005.84	2854
1006.058	2728
1006.276	2767
1006.494	3232
1006.712	2787
1006.931	2803
1007.149	2699
1007.367	2693
1007.584	2743
1007.802	2777
1008.02	2730
1008.238	2800
1008.456	2844
1008.673	2706
1008.891	2781
1009.109	2759
1009.326	2811
1009.544	2921
1009.761	2834
1009.979	2957
1010.196	2939
1010.413	3088
1010.631	3157
1010.848	3244
1011.065	3249
1011.282	3200
1011.5	3163
1011.717	3244
1011.934	3172
1012.151	3207
1012.368	3162
1012.585	3160
1012.801	3168
1013.018	3156
1013.235	3148
1013.452	3142
1013.669	3196
1013.885	3182
1014.102	3210
1014.318	3174
1014.535	3130
1014.751	3157
1014.968	3128
1015.184	3157
1015.401	3051
1015.617	3097
1015.833	3047
1016.049	3039
1016.266	2990
1016.482	2995
1016.698	2916
1016.914	3020
1017.13	2892
1017.346	2892
1017.562	2950
1017.778	2886
1017.993	2864
1018.209	2925
1018.425	2904
1018.641	2865
1018.856	2818
1019.072	2863
1019.288	2923
1019.503	2847
1019.719	2791
1019.934	2821
1020.149	2858
1020.365	2822
1020.58	2712
1020.795	2710
1021.011	2640
1021.226	2601
1021.441	2595
1021.656	2486
1021.871	2379
1022.086	2366
1022.301	2360
1022.516	2367
1022.731	2379
1022.946	2277
1023.16	2192
1023.375	2186
1023.59	2134
1023.804	2094
1024.019	2171
1024.234	2047
1024.448	2066
1024.663	1946
1024.877	1929
1025.092	1940
1025.306	1940
1025.52	1800
1025.734	1847
1025.949	1753
1026.163	1721
1026.377	1643
1026.591	1672
1026.805	1587
1027.019	1567
1027.233	1520
1027.447	1450
1027.661	1536
1027.875	1488
1028.088	1432
1028.302	1372
1028.516	1333
1028.73	1306
1028.943	1284
1029.157	1196
1029.37	1124
1029.584	-1
1029.797	-1
1030.011	2
1030.224	-6
