Data from QEP037381__16__15-11-55-855.txt Node

Date: Fri Dec 16 15:11:55 EST 2022
User: dcclab
Spectrometer: QEP03738
Trigger mode: 4
Integration Time (sec): 1.000000E1
Scans to average: 1
Electric dark correction enabled: true
Nonlinearity correction enabled: false
Boxcar width: 0
XAxis mode: Wavelengths
Number of Pixels in Spectrum: 1044
>>>>>Begin Spectral Data<<<<<
784.041	16
784.3	2
784.558	-5
784.817	-5
785.075	91467
785.334	15865
785.592	7439
785.851	5110
786.109	3858
786.368	3009
786.626	2415
786.884	2040
787.143	1674
787.401	1412
787.659	1278
787.917	1118
788.175	1003
788.433	914
788.691	799
788.949	762
789.207	728
789.465	630
789.723	608
789.98	557
790.238	609
790.496	564
790.753	541
791.011	587
791.268	522
791.526	505
791.783	528
792.041	522
792.298	434
792.556	502
792.813	469
793.07	462
793.327	439
793.584	522
793.841	465
794.099	486
794.356	554
794.613	440
794.869	459
795.126	429
795.383	426
795.64	447
795.897	397
796.153	452
796.41	444
796.667	429
796.923	429
797.18	419
797.436	454
797.693	434
797.949	474
798.206	496
798.462	406
798.718	483
798.974	439
799.231	487
799.487	494
799.743	504
799.999	534
800.255	533
800.511	528
800.767	578
801.023	576
801.279	593
801.534	622
801.79	669
802.046	694
802.302	863
802.557	945
802.813	1217
803.068	1482
803.324	2063
803.579	2769
803.835	3846
804.09	5283
804.345	6878
804.601	8857
804.856	10734
805.111	12248
805.366	13512
805.621	14421
805.876	15079
806.131	15445
806.386	15856
806.641	16149
806.896	16427
807.151	16729
807.406	16945
807.661	17341
807.915	17523
808.17	18030
808.425	18068
808.679	18410
808.934	18576
809.188	18666
809.443	19058
809.697	19235
809.951	19371
810.206	19534
810.46	19770
810.714	20158
810.968	20388
811.223	20406
811.477	20431
811.731	20662
811.985	20794
812.239	20786
812.493	21030
812.747	21142
813	21174
813.254	21304
813.508	21421
813.762	21505
814.015	21589
814.269	21770
814.522	21956
814.776	22218
815.03	22483
815.283	22810
815.536	23236
815.79	23585
816.043	23949
816.296	24336
816.55	24540
816.803	24858
817.056	25258
817.309	25471
817.562	25753
817.815	25968
818.068	26219
818.321	26532
818.574	26961
818.827	27223
819.079	27480
819.332	28032
819.585	28274
819.838	28715
820.09	28875
820.343	29193
820.595	29304
820.848	29401
821.1	29718
821.353	29499
821.605	29625
821.857	29621
822.11	29417
822.362	29472
822.614	29361
822.866	29440
823.118	29382
823.37	29520
823.622	29640
823.874	29598
824.126	29771
824.378	29825
824.63	30022
824.882	30068
825.134	29963
825.385	29864
825.637	29893
825.888	29881
826.14	29837
826.392	29651
826.643	29408
826.895	29333
827.146	29278
827.397	29134
827.649	29365
827.9	29234
828.151	29393
828.402	29359
828.653	29510
828.905	29613
829.156	29601
829.407	29595
829.658	29530
829.909	29659
830.159	29634
830.41	29430
830.661	29379
830.912	29091
831.162	29177
831.413	29070
831.664	29086
831.914	28972
832.165	29001
832.415	28930
832.666	28892
832.916	29024
833.167	28953
833.417	28997
833.667	28917
833.917	28739
834.168	28814
834.418	28766
834.668	28607
834.918	28359
835.168	28211
835.418	28234
835.668	28044
835.918	27985
836.167	28025
836.417	27980
836.667	27902
836.917	27829
837.166	27811
837.416	27773
837.666	27845
837.915	27691
838.165	27790
838.414	27560
838.663	27621
838.913	27740
839.162	27528
839.411	27578
839.661	27441
839.91	27513
840.159	27391
840.408	27390
840.657	27484
840.906	27377
841.155	27336
841.404	27310
841.653	27406
841.902	27368
842.15	27521
842.399	27324
842.648	27409
842.897	27331
843.145	27097
843.394	26998
843.642	26777
843.891	26605
844.139	26454
844.388	26226
844.636	26233
844.884	26341
845.133	26223
845.381	26331
845.629	26348
845.877	26235
846.125	26286
846.373	26233
846.621	26130
846.869	25997
847.117	26023
847.365	25663
847.613	25634
847.861	25510
848.108	25545
848.356	25563
848.604	25346
848.851	25466
849.099	25493
849.346	25673
849.594	25626
849.841	25746
850.089	25797
850.336	25782
850.583	25853
850.831	25710
851.078	25533
851.325	25657
851.572	25757
851.819	25524
852.066	25015
852.313	24651
852.56	24417
852.807	24249
853.054	24249
853.301	24151
853.548	24239
853.794	24490
854.041	24333
854.288	24570
854.534	24713
854.781	24773
855.028	24572
855.274	24497
855.52	24364
855.767	24275
856.013	24431
856.26	24668
856.506	24157
856.752	24091
856.998	24183
857.244	24197
857.49	24334
857.736	24412
857.982	24370
858.228	24214
858.474	24018
858.72	23962
858.966	23680
859.212	23517
859.458	23309
859.703	23182
859.949	22895
860.195	22818
860.44	22611
860.686	22598
860.931	22612
861.177	22371
861.422	22440
861.667	22243
861.913	22311
862.158	22260
862.403	22357
862.648	22410
862.893	22552
863.138	22487
863.384	22429
863.629	22367
863.873	22349
864.118	22236
864.363	22197
864.608	22142
864.853	21992
865.098	21897
865.342	21928
865.587	21720
865.832	21687
866.076	21640
866.321	21606
866.565	21627
866.81	21507
867.054	21564
867.298	21376
867.543	21337
867.787	21355
868.031	21328
868.275	21238
868.519	21197
868.764	21136
869.008	21095
869.252	21164
869.496	21064
869.739	21068
869.983	20943
870.227	21198
870.471	21069
870.715	21181
870.958	21244
871.202	21289
871.446	21369
871.689	21316
871.933	21244
872.176	21268
872.42	21239
872.663	21025
872.906	21208
873.15	21023
873.393	20904
873.636	20933
873.879	20703
874.122	20551
874.366	20246
874.609	20221
874.852	20021
875.095	19857
875.337	19840
875.58	19760
875.823	19673
876.066	19721
876.309	19604
876.551	19440
876.794	19315
877.037	19347
877.279	19251
877.522	19290
877.764	19291
878.007	19268
878.249	19140
878.491	19081
878.734	19121
878.976	19099
879.218	18925
879.46	18913
879.702	18679
879.945	18569
880.187	18408
880.429	18302
880.671	18283
880.912	18236
881.154	18260
881.396	18030
881.638	18165
881.88	18032
882.121	17997
882.363	17978
882.605	18005
882.846	17959
883.088	18017
883.329	17868
883.571	17932
883.812	18023
884.053	18517
884.295	18715
884.536	18975
884.777	18859
885.018	18809
885.259	18712
885.5	18586
885.742	18862
885.982	18518
886.223	18326
886.464	18152
886.705	18009
886.946	17907
887.187	17418
887.428	17445
887.668	17146
887.909	16893
888.15	16674
888.39	16671
888.631	16466
888.871	16425
889.111	16277
889.352	16141
889.592	16051
889.833	15987
890.073	15860
890.313	15840
890.553	15618
890.793	15643
891.033	15604
891.273	15531
891.513	15424
891.753	15549
891.993	15410
892.233	15493
892.473	15612
892.713	15660
892.952	15553
893.192	15652
893.432	15566
893.671	15564
893.911	15481
894.15	15333
894.39	15178
894.629	15179
894.869	15157
895.108	14982
895.347	14849
895.587	14990
895.826	14995
896.065	14914
896.304	14965
896.543	14895
896.782	14802
897.021	14848
897.26	14833
897.499	14908
897.738	14792
897.977	14772
898.216	14576
898.454	14521
898.693	14471
898.932	14460
899.17	14340
899.409	14274
899.647	14274
899.886	14275
900.124	14344
900.363	14245
900.601	14331
900.839	14388
901.078	14449
901.316	14432
901.554	14534
901.792	14736
902.03	14573
902.268	14698
902.506	14572
902.744	14422
902.982	14368
903.22	14134
903.458	13923
903.695	13692
903.933	13431
904.171	13241
904.409	13070
904.646	12868
904.884	12598
905.121	12566
905.359	12390
905.596	12310
905.833	12102
906.071	12127
906.308	12012
906.545	11974
906.783	11893
907.02	11931
907.257	11868
907.494	11809
907.731	11716
907.968	11668
908.205	11623
908.442	11621
908.679	11509
908.915	11389
909.152	11348
909.389	11193
909.626	11211
909.862	11101
910.099	11011
910.335	11087
910.572	10863
910.808	10953
911.045	10845
911.281	10738
911.518	10917
911.754	10772
911.99	10692
912.226	10573
912.463	10514
912.699	10442
912.935	10322
913.171	10242
913.407	10148
913.643	10067
913.879	10033
914.114	9946
914.35	9858
914.586	9771
914.822	9700
915.057	9667
915.293	9490
915.529	9477
915.764	9561
916	9507
916.235	9492
916.471	9419
916.706	9370
916.941	9380
917.177	9335
917.412	9393
917.647	9376
917.882	9326
918.117	9265
918.352	9294
918.588	9245
918.823	9164
919.057	9093
919.292	8955
919.527	8972
919.762	8821
919.997	8751
920.232	8674
920.466	8694
920.701	8479
920.935	8463
921.17	8412
921.405	8356
921.639	8453
921.873	8378
922.108	8324
922.342	8287
922.576	8206
922.811	8185
923.045	8275
923.279	8218
923.513	8009
923.747	8135
923.981	8025
924.215	7936
924.449	7944
924.683	7905
924.917	7827
925.151	7816
925.385	7789
925.618	7769
925.852	7729
926.086	7662
926.319	7717
926.553	7722
926.786	7685
927.02	7629
927.253	7762
927.486	7714
927.72	7581
927.953	7634
928.186	7606
928.42	7608
928.653	7445
928.886	7550
929.119	7521
929.352	7460
929.585	7366
929.818	7305
930.051	7247
930.284	7246
930.516	7091
930.749	7085
930.982	7059
931.215	7062
931.447	6961
931.68	6953
931.912	6968
932.145	6947
932.377	7013
932.61	7089
932.842	6964
933.074	6963
933.307	6908
933.539	6947
933.771	7000
934.003	6922
934.236	6970
934.468	6956
934.7	6923
934.932	6970
935.164	6855
935.395	6824
935.627	6826
935.859	6823
936.091	6734
936.323	6780
936.554	6753
936.786	6655
937.017	6632
937.249	6675
937.481	6575
937.712	6629
937.943	6591
938.175	6610
938.406	6559
938.637	6630
938.869	6490
939.1	6569
939.331	6471
939.562	6515
939.793	6486
940.024	6473
940.255	6442
940.486	6400
940.717	6334
940.948	6349
941.179	6337
941.409	6290
941.64	6246
941.871	6282
942.102	6230
942.332	6264
942.563	6336
942.793	6272
943.024	6219
943.254	6249
943.484	6270
943.715	6296
943.945	6237
944.175	6153
944.405	6138
944.636	6139
944.866	6150
945.096	6164
945.326	6107
945.556	6116
945.786	6120
946.016	6084
946.245	5989
946.475	5979
946.705	5926
946.935	5936
947.164	5917
947.394	5784
947.624	5795
947.853	5872
948.083	5767
948.312	5731
948.542	5633
948.771	5636
949	5641
949.23	5613
949.459	5620
949.688	5705
949.917	5597
950.146	5622
950.375	5677
950.604	5564
950.833	5681
951.062	5636
951.291	5539
951.52	5519
951.749	5461
951.978	5454
952.206	5493
952.435	5475
952.664	5454
952.892	5415
953.121	5393
953.349	5428
953.578	5425
953.806	5341
954.035	5286
954.263	5262
954.491	5243
954.719	5298
954.948	5242
955.176	5211
955.404	5089
955.632	5133
955.86	5154
956.088	5121
956.316	5111
956.544	5086
956.772	5030
956.999	4960
957.227	5063
957.455	4908
957.683	4950
957.91	4833
958.138	4832
958.365	4796
958.593	4806
958.82	4738
959.048	4820
959.275	4779
959.502	4725
959.73	4766
959.957	4731
960.184	4782
960.411	4688
960.638	4763
960.865	4676
961.092	4690
961.319	4635
961.546	4721
961.773	4702
962	4628
962.227	4626
962.454	4645
962.68	4604
962.907	4608
963.134	4528
963.36	4520
963.587	4561
963.813	4470
964.04	4479
964.266	4426
964.493	4471
964.719	4379
964.945	4466
965.171	4295
965.398	4315
965.624	4395
965.85	4224
966.076	4256
966.302	4301
966.528	4226
966.754	4247
966.98	4214
967.206	4184
967.431	4157
967.657	4195
967.883	4199
968.109	4133
968.334	4117
968.56	4077
968.785	4058
969.011	4073
969.236	4078
969.462	4010
969.687	4062
969.912	4036
970.138	4086
970.363	3967
970.588	4014
970.813	3974
971.038	3950
971.263	3981
971.488	3935
971.713	3975
971.938	3941
972.163	3810
972.388	3834
972.613	3837
972.838	3794
973.062	3748
973.287	3791
973.512	3700
973.736	3725
973.961	3701
974.185	3705
974.41	3718
974.634	3598
974.858	3596
975.083	3646
975.307	3690
975.531	3582
975.755	3525
975.98	3505
976.204	3450
976.428	3421
976.652	3400
976.876	3403
977.1	3454
977.324	3367
977.547	3442
977.771	3431
977.995	3364
978.219	3367
978.442	3419
978.666	3370
978.89	3325
979.113	3355
979.337	3323
979.56	3263
979.783	3378
980.007	3254
980.23	3278
980.453	3249
980.677	3254
980.9	3279
981.123	3137
981.346	3222
981.569	3189
981.792	3244
982.015	3126
982.238	3116
982.461	3091
982.684	3091
982.907	3044
983.129	3012
983.352	3077
983.575	3032
983.797	3027
984.02	3002
984.242	3005
984.465	3023
984.687	2985
984.91	2986
985.132	2965
985.354	2966
985.577	2947
985.799	2918
986.021	2838
986.243	2879
986.465	2879
986.687	2918
986.909	2924
987.131	2869
987.353	2812
987.575	2832
987.797	2804
988.019	2769
988.241	2772
988.462	2750
988.684	2810
988.906	2831
989.127	2818
989.349	2712
989.57	2713
989.792	2782
990.013	2753
990.234	2738
990.456	2798
990.677	2758
990.898	2690
991.119	2697
991.341	2712
991.562	2671
991.783	2680
992.004	2597
992.225	2567
992.446	2646
992.667	2523
992.887	2597
993.108	2474
993.329	2603
993.55	2562
993.77	2512
993.991	2458
994.212	2492
994.432	2495
994.653	2488
994.873	2480
995.093	2355
995.314	2423
995.534	2484
995.754	2469
995.975	2486
996.195	2391
996.415	2450
996.635	2403
996.855	2432
997.075	2389
997.295	2372
997.515	2320
997.735	2437
997.955	2378
998.174	2376
998.394	2341
998.614	2385
998.834	2340
999.053	2394
999.273	2360
999.492	2386
999.712	2336
999.931	2285
1000.151	2336
1000.37	2295
1000.589	2316
1000.809	2231
1001.028	2365
1001.247	2283
1001.466	2191
1001.685	2314
1001.904	2249
1002.123	2232
1002.342	2231
1002.561	2188
1002.78	2197
1002.999	2270
1003.218	2202
1003.436	2135
1003.655	2174
1003.874	2147
1004.092	2130
1004.311	2148
1004.53	2130
1004.748	2189
1004.966	2095
1005.185	2160
1005.403	2188
1005.622	2105
1005.84	2211
1006.058	2059
1006.276	2118
1006.494	2613
1006.712	2110
1006.931	2176
1007.149	2105
1007.367	2096
1007.584	2134
1007.802	2182
1008.02	2136
1008.238	2240
1008.456	2206
1008.673	2123
1008.891	2214
1009.109	2203
1009.326	2232
1009.544	2365
1009.761	2287
1009.979	2391
1010.196	2423
1010.413	2574
1010.631	2666
1010.848	2762
1011.065	2765
1011.282	2686
1011.5	2687
1011.717	2767
1011.934	2708
1012.151	2691
1012.368	2682
1012.585	2641
1012.801	2704
1013.018	2700
1013.235	2710
1013.452	2823
1013.669	2808
1013.885	2778
1014.102	2791
1014.318	2694
1014.535	2656
1014.751	2743
1014.968	2689
1015.184	2685
1015.401	2565
1015.617	2584
1015.833	2523
1016.049	2517
1016.266	2498
1016.482	2489
1016.698	2429
1016.914	2505
1017.13	2413
1017.346	2389
1017.562	2436
1017.778	2410
1017.993	2373
1018.209	2391
1018.425	2358
1018.641	2371
1018.856	2332
1019.072	2379
1019.288	2396
1019.503	2350
1019.719	2287
1019.934	2290
1020.149	2387
1020.365	2287
1020.58	2220
1020.795	2247
1021.011	2163
1021.226	2131
1021.441	2101
1021.656	2017
1021.871	1947
1022.086	1907
1022.301	1890
1022.516	1863
1022.731	1898
1022.946	1821
1023.16	1795
1023.375	1751
1023.59	1736
1023.804	1645
1024.019	1758
1024.234	1609
1024.448	1647
1024.663	1555
1024.877	1556
1025.092	1551
1025.306	1566
1025.52	1432
1025.734	1503
1025.949	1395
1026.163	1363
1026.377	1306
1026.591	1336
1026.805	1233
1027.019	1247
1027.233	1191
1027.447	1131
1027.661	1243
1027.875	1155
1028.088	1169
1028.302	1073
1028.516	1050
1028.73	1066
1028.943	1010
1029.157	954
1029.37	878
1029.584	-2
1029.797	-1
1030.011	-2
1030.224	-3
