Data from QEP037381__85__15-23-25-864.txt Node

Date: Fri Dec 16 15:23:25 EST 2022
User: dcclab
Spectrometer: QEP03738
Trigger mode: 4
Integration Time (sec): 1.000000E1
Scans to average: 1
Electric dark correction enabled: true
Nonlinearity correction enabled: false
Boxcar width: 0
XAxis mode: Wavelengths
Number of Pixels in Spectrum: 1044
>>>>>Begin Spectral Data<<<<<
784.041	11
784.3	-2
784.558	-3
784.817	-3
785.075	91846
785.334	15711
785.592	7333
785.851	5062
786.109	3807
786.368	2957
786.626	2428
786.884	2023
787.143	1702
787.401	1408
787.659	1280
787.917	1092
788.175	1013
788.433	906
788.691	802
788.949	754
789.207	714
789.465	630
789.723	619
789.98	577
790.238	595
790.496	576
790.753	553
791.011	580
791.268	528
791.526	522
791.783	537
792.041	528
792.298	430
792.556	504
792.813	487
793.07	464
793.327	452
793.584	517
793.841	448
794.099	465
794.356	533
794.613	438
794.869	462
795.126	421
795.383	402
795.64	436
795.897	389
796.153	444
796.41	434
796.667	430
796.923	445
797.18	434
797.436	447
797.693	426
797.949	470
798.206	507
798.462	430
798.718	491
798.974	450
799.231	492
799.487	475
799.743	503
799.999	529
800.255	520
800.511	520
800.767	567
801.023	561
801.279	559
801.534	608
801.79	675
802.046	737
802.302	880
802.557	1011
802.813	1234
803.068	1570
803.324	2122
803.579	2945
803.835	4067
804.09	5607
804.345	7314
804.601	9297
804.856	11234
805.111	13033
805.366	14258
805.621	15167
805.876	15930
806.131	16276
806.386	16628
806.641	16943
806.896	17291
807.151	17598
807.406	17838
807.661	18279
807.915	18505
808.17	18750
808.425	19075
808.679	19317
808.934	19451
809.188	19750
809.443	19943
809.697	20247
809.951	20312
810.206	20573
810.46	20774
810.714	21037
810.968	21220
811.223	21397
811.477	21497
811.731	21694
811.985	21897
812.239	22015
812.493	22186
812.747	22255
813	22304
813.254	22308
813.508	22516
813.762	22667
814.015	22758
814.269	22952
814.522	23150
814.776	23279
815.03	23712
815.283	24056
815.536	24460
815.79	24766
816.043	25143
816.296	25622
816.55	25804
816.803	26166
817.056	26536
817.309	26811
817.562	27102
817.815	27281
818.068	27550
818.321	27913
818.574	28270
818.827	28608
819.079	28955
819.332	29599
819.585	29860
819.838	30411
820.09	30350
820.343	30725
820.595	30798
820.848	31014
821.1	31237
821.353	31187
821.605	31243
821.857	31216
822.11	31046
822.362	31045
822.614	31022
822.866	30993
823.118	31005
823.37	31118
823.622	31212
823.874	31426
824.126	31528
824.378	31555
824.63	31639
824.882	31772
825.134	31605
825.385	31684
825.637	31549
825.888	31398
826.14	31491
826.392	31234
826.643	31094
826.895	31078
827.146	30952
827.397	30939
827.649	31005
827.9	30940
828.151	30951
828.402	31103
828.653	31161
828.905	31221
829.156	31440
829.407	31286
829.658	31329
829.909	31347
830.159	31205
830.41	31291
830.661	31063
830.912	30864
831.162	30883
831.413	30774
831.664	30780
831.914	30841
832.165	30797
832.415	30727
832.666	30783
832.916	30715
833.167	30827
833.417	30635
833.667	30586
833.917	30550
834.168	30467
834.418	30339
834.668	30278
834.918	30313
835.168	30010
835.418	29888
835.668	29777
835.918	29854
836.167	29725
836.417	29716
836.667	29680
836.917	29593
837.166	29658
837.416	29709
837.666	29557
837.915	29525
838.165	29461
838.414	29322
838.663	29338
838.913	29424
839.162	29280
839.411	29271
839.661	29200
839.91	29158
840.159	28980
840.408	29115
840.657	29042
840.906	29026
841.155	29059
841.404	28999
841.653	29128
841.902	29144
842.15	29160
842.399	29184
842.648	29157
842.897	29089
843.145	28887
843.394	28579
843.642	28554
843.891	28472
844.139	28304
844.388	28128
844.636	28019
844.884	27953
845.133	28023
845.381	27999
845.629	28015
845.877	27999
846.125	27990
846.373	27889
846.621	27791
846.869	27614
847.117	27563
847.365	27383
847.613	27342
847.861	27213
848.108	27212
848.356	27039
848.604	27028
848.851	27094
849.099	27233
849.346	27232
849.594	27347
849.841	27530
850.089	27410
850.336	27443
850.583	27489
850.831	27319
851.078	27169
851.325	27208
851.572	27415
851.819	27117
852.066	26723
852.313	26221
852.56	26003
852.807	25869
853.054	25806
853.301	25887
853.548	25902
853.794	26061
854.041	26069
854.288	26158
854.534	26464
854.781	26406
855.028	26325
855.274	26315
855.52	26166
855.767	25959
856.013	26060
856.26	26355
856.506	25693
856.752	25840
856.998	25878
857.244	25859
857.49	25974
857.736	25977
857.982	26036
858.228	25907
858.474	25846
858.72	25799
858.966	25447
859.212	25143
859.458	24934
859.703	24678
859.949	24548
860.195	24452
860.44	24278
860.686	24216
860.931	24185
861.177	24073
861.422	23947
861.667	23819
861.913	23940
862.158	23848
862.403	24062
862.648	24027
862.893	24147
863.138	24117
863.384	24029
863.629	24003
863.873	24029
864.118	23864
864.363	23798
864.608	23716
864.853	23725
865.098	23689
865.342	23520
865.587	23331
865.832	23403
866.076	23361
866.321	23316
866.565	23199
866.81	23067
867.054	23126
867.298	22967
867.543	22889
867.787	22993
868.031	22911
868.275	22824
868.519	22833
868.764	22838
869.008	22795
869.252	22720
869.496	22653
869.739	22675
869.983	22678
870.227	22798
870.471	22569
870.715	22695
870.958	22713
871.202	22834
871.446	22918
871.689	22874
871.933	23014
872.176	22919
872.42	22842
872.663	22763
872.906	22728
873.15	22709
873.393	22534
873.636	22583
873.879	22304
874.122	22142
874.366	21800
874.609	21791
874.852	21539
875.095	21579
875.337	21282
875.58	21250
875.823	21343
876.066	21195
876.309	21206
876.551	20973
876.794	20761
877.037	20862
877.279	20825
877.522	20854
877.764	20823
878.007	20797
878.249	20733
878.491	20637
878.734	20869
878.976	20561
879.218	20479
879.46	20471
879.702	20357
879.945	20206
880.187	19911
880.429	19859
880.671	19766
880.912	19698
881.154	19643
881.396	19600
881.638	19687
881.88	19517
882.121	19492
882.363	19634
882.605	19614
882.846	19559
883.088	19590
883.329	19410
883.571	19525
883.812	19607
884.053	19877
884.295	20063
884.536	20315
884.777	20176
885.018	20148
885.259	20125
885.5	20017
885.742	20274
885.982	19917
886.223	19804
886.464	19786
886.705	19483
886.946	19226
887.187	19022
887.428	18861
887.668	18632
887.909	18393
888.15	18244
888.39	18125
888.631	17946
888.871	17802
889.111	17756
889.352	17639
889.592	17424
889.833	17359
890.073	17246
890.313	17225
890.553	17038
890.793	17009
891.033	17071
891.273	16919
891.513	16859
891.753	16830
891.993	16811
892.233	16808
892.473	16900
892.713	16865
892.952	16839
893.192	16913
893.432	16849
893.671	16962
893.911	16882
894.15	16791
894.39	16550
894.629	16476
894.869	16475
895.108	16296
895.347	16354
895.587	16314
895.826	16362
896.065	16190
896.304	16253
896.543	16293
896.782	16165
897.021	16190
897.26	16202
897.499	16200
897.738	16205
897.977	16015
898.216	15987
898.454	15867
898.693	15817
898.932	15716
899.17	15700
899.409	15717
899.647	15607
899.886	15603
900.124	15633
900.363	15631
900.601	15742
900.839	15726
901.078	15767
901.316	15843
901.554	15899
901.792	15980
902.03	16060
902.268	15987
902.506	15935
902.744	15860
902.982	15756
903.22	15428
903.458	15266
903.695	15068
903.933	14840
904.171	14613
904.409	14274
904.646	14170
904.884	13911
905.121	13873
905.359	13674
905.596	13637
905.833	13371
906.071	13325
906.308	13336
906.545	13230
906.783	13167
907.02	13184
907.257	13055
907.494	13085
907.731	13056
907.968	12985
908.205	12918
908.442	12736
908.679	12772
908.915	12665
909.152	12520
909.389	12355
909.626	12307
909.862	12225
910.099	12199
910.335	12246
910.572	12027
910.808	12029
911.045	11933
911.281	11944
911.518	11992
911.754	11843
911.99	11802
912.226	11743
912.463	11546
912.699	11546
912.935	11507
913.171	11404
913.407	11294
913.643	11256
913.879	11090
914.114	10978
914.35	10946
914.586	10851
914.822	10686
915.057	10729
915.293	10645
915.529	10514
915.764	10632
916	10531
916.235	10516
916.471	10528
916.706	10437
916.941	10376
917.177	10413
917.412	10428
917.647	10392
917.882	10331
918.117	10427
918.352	10368
918.588	10333
918.823	10175
919.057	10178
919.292	9965
919.527	9995
919.762	9887
919.997	9809
920.232	9677
920.466	9622
920.701	9525
920.935	9534
921.17	9488
921.405	9406
921.639	9402
921.873	9289
922.108	9298
922.342	9274
922.576	9139
922.811	9149
923.045	9198
923.279	9141
923.513	9044
923.747	9042
923.981	8978
924.215	8871
924.449	8830
924.683	8772
924.917	8730
925.151	8760
925.385	8754
925.618	8720
925.852	8655
926.086	8571
926.319	8651
926.553	8605
926.786	8574
927.02	8525
927.253	8645
927.486	8647
927.72	8539
927.953	8543
928.186	8514
928.42	8502
928.653	8434
928.886	8430
929.119	8446
929.352	8343
929.585	8250
929.818	8192
930.051	8110
930.284	8159
930.516	8004
930.749	7925
930.982	7966
931.215	8002
931.447	7927
931.68	7823
931.912	7774
932.145	7851
932.377	7866
932.61	7994
932.842	7732
933.074	7832
933.307	7734
933.539	7848
933.771	7868
934.003	7799
934.236	7822
934.468	7931
934.7	7781
934.932	7781
935.164	7689
935.395	7726
935.627	7730
935.859	7652
936.091	7616
936.323	7657
936.554	7660
936.786	7544
937.017	7465
937.249	7568
937.481	7427
937.712	7465
937.943	7401
938.175	7431
938.406	7413
938.637	7501
938.869	7371
939.1	7400
939.331	7321
939.562	7360
939.793	7323
940.024	7366
940.255	7283
940.486	7172
940.717	7202
940.948	7212
941.179	7117
941.409	7081
941.64	7083
941.871	7068
942.102	7026
942.332	7094
942.563	7136
942.793	7119
943.024	7028
943.254	7091
943.484	7082
943.715	7016
943.945	7056
944.175	6950
944.405	7041
944.636	7009
944.866	6995
945.096	7049
945.326	6883
945.556	6998
945.786	6959
946.016	6927
946.245	6794
946.475	6768
946.705	6783
946.935	6722
947.164	6627
947.394	6607
947.624	6552
947.853	6588
948.083	6565
948.312	6526
948.542	6426
948.771	6395
949	6462
949.23	6385
949.459	6385
949.688	6514
949.917	6368
950.146	6401
950.375	6431
950.604	6316
950.833	6414
951.062	6398
951.291	6297
951.52	6248
951.749	6236
951.978	6247
952.206	6249
952.435	6181
952.664	6228
952.892	6192
953.121	6177
953.349	6186
953.578	6169
953.806	6045
954.035	6017
954.263	6100
954.491	5942
954.719	6038
954.948	5940
955.176	5939
955.404	5850
955.632	5884
955.86	5891
956.088	5828
956.316	5846
956.544	5782
956.772	5754
956.999	5703
957.227	5726
957.455	5615
957.683	5636
957.91	5573
958.138	5503
958.365	5537
958.593	5512
958.82	5419
959.048	5455
959.275	5443
959.502	5470
959.73	5389
959.957	5459
960.184	5390
960.411	5341
960.638	5430
960.865	5364
961.092	5352
961.319	5296
961.546	5361
961.773	5325
962	5341
962.227	5331
962.454	5314
962.68	5247
962.907	5245
963.134	5241
963.36	5196
963.587	5196
963.813	5078
964.04	5118
964.266	5048
964.493	5085
964.719	5020
964.945	5013
965.171	4890
965.398	4945
965.624	4945
965.85	4843
966.076	4818
966.302	4861
966.528	4868
966.754	4831
966.98	4802
967.206	4782
967.431	4695
967.657	4816
967.883	4784
968.109	4767
968.334	4677
968.56	4676
968.785	4638
969.011	4602
969.236	4696
969.462	4622
969.687	4605
969.912	4652
970.138	4655
970.363	4510
970.588	4584
970.813	4571
971.038	4531
971.263	4506
971.488	4484
971.713	4530
971.938	4482
972.163	4368
972.388	4400
972.613	4389
972.838	4371
973.062	4360
973.287	4352
973.512	4235
973.736	4247
973.961	4264
974.185	4239
974.41	4217
974.634	4146
974.858	4125
975.083	4175
975.307	4139
975.531	4094
975.755	4048
975.98	4042
976.204	3968
976.428	3946
976.652	3983
976.876	3886
977.1	3972
977.324	3908
977.547	3922
977.771	3920
977.995	3882
978.219	3834
978.442	3914
978.666	3856
978.89	3844
979.113	3871
979.337	3815
979.56	3793
979.783	3886
980.007	3744
980.23	3786
980.453	3690
980.677	3720
980.9	3721
981.123	3600
981.346	3723
981.569	3684
981.792	3635
982.015	3585
982.238	3562
982.461	3567
982.684	3545
982.907	3508
983.129	3487
983.352	3514
983.575	3519
983.797	3469
984.02	3439
984.242	3455
984.465	3403
984.687	3424
984.91	3457
985.132	3345
985.354	3361
985.577	3367
985.799	3323
986.021	3240
986.243	3259
986.465	3308
986.687	3319
986.909	3360
987.131	3290
987.353	3262
987.575	3292
987.797	3216
988.019	3193
988.241	3230
988.462	3151
988.684	3188
988.906	3232
989.127	3241
989.349	3125
989.57	3126
989.792	3153
990.013	3182
990.234	3221
990.456	3149
990.677	3142
990.898	3125
991.119	3039
991.341	3104
991.562	2981
991.783	3068
992.004	2967
992.225	2977
992.446	3021
992.667	2912
992.887	2964
993.108	2895
993.329	2974
993.55	2926
993.77	2817
993.991	2833
994.212	2863
994.432	2829
994.653	2851
994.873	2823
995.093	2696
995.314	2748
995.534	2804
995.754	2805
995.975	2799
996.195	2697
996.415	2770
996.635	2740
996.855	2744
997.075	2711
997.295	2675
997.515	2673
997.735	2761
997.955	2699
998.174	2756
998.394	2657
998.614	2698
998.834	2632
999.053	2689
999.273	2653
999.492	2710
999.712	2649
999.931	2592
1000.151	2611
1000.37	2594
1000.589	2644
1000.809	2571
1001.028	2653
1001.247	2571
1001.466	2468
1001.685	2584
1001.904	2552
1002.123	2512
1002.342	2502
1002.561	2459
1002.78	2488
1002.999	2521
1003.218	2423
1003.436	2472
1003.655	2483
1003.874	2389
1004.092	2409
1004.311	2477
1004.53	2409
1004.748	2470
1004.966	2380
1005.185	2449
1005.403	2383
1005.622	2433
1005.84	2438
1006.058	2380
1006.276	2401
1006.494	2878
1006.712	2398
1006.931	2436
1007.149	2341
1007.367	2320
1007.584	2388
1007.802	2435
1008.02	2389
1008.238	2515
1008.456	2469
1008.673	2363
1008.891	2487
1009.109	2449
1009.326	2523
1009.544	2616
1009.761	2525
1009.979	2671
1010.196	2714
1010.413	2873
1010.631	2932
1010.848	3003
1011.065	3047
1011.282	3011
1011.5	2912
1011.717	3004
1011.934	2954
1012.151	2988
1012.368	2991
1012.585	2900
1012.801	2948
1013.018	2902
1013.235	2905
1013.452	2943
1013.669	2964
1013.885	2968
1014.102	2981
1014.318	2949
1014.535	2914
1014.751	2938
1014.968	2927
1015.184	2950
1015.401	2875
1015.617	2864
1015.833	2772
1016.049	2792
1016.266	2776
1016.482	2751
1016.698	2682
1016.914	2764
1017.13	2629
1017.346	2640
1017.562	2678
1017.778	2634
1017.993	2617
1018.209	2630
1018.425	2624
1018.641	2593
1018.856	2560
1019.072	2621
1019.288	2668
1019.503	2620
1019.719	2533
1019.934	2547
1020.149	2610
1020.365	2529
1020.58	2485
1020.795	2459
1021.011	2416
1021.226	2368
1021.441	2366
1021.656	2273
1021.871	2161
1022.086	2153
1022.301	2120
1022.516	2122
1022.731	2123
1022.946	2048
1023.16	2026
1023.375	1950
1023.59	1932
1023.804	1891
1024.019	1945
1024.234	1824
1024.448	1850
1024.663	1753
1024.877	1725
1025.092	1718
1025.306	1726
1025.52	1612
1025.734	1685
1025.949	1567
1026.163	1517
1026.377	1440
1026.591	1505
1026.805	1409
1027.019	1415
1027.233	1331
1027.447	1287
1027.661	1365
1027.875	1298
1028.088	1301
1028.302	1203
1028.516	1188
1028.73	1169
1028.943	1147
1029.157	1064
1029.37	998
1029.584	-2
1029.797	1
1030.011	-1
1030.224	-1
