Data from QEP037381__35__15-15-05-857.txt Node

Date: Fri Dec 16 15:15:05 EST 2022
User: dcclab
Spectrometer: QEP03738
Trigger mode: 4
Integration Time (sec): 1.000000E1
Scans to average: 1
Electric dark correction enabled: true
Nonlinearity correction enabled: false
Boxcar width: 0
XAxis mode: Wavelengths
Number of Pixels in Spectrum: 1044
>>>>>Begin Spectral Data<<<<<
784.041	12
784.3	2
784.558	-4
784.817	-1
785.075	88802
785.334	15437
785.592	7284
785.851	5010
786.109	3768
786.368	2964
786.626	2435
786.884	1986
787.143	1697
787.401	1425
787.659	1265
787.917	1093
788.175	1025
788.433	891
788.691	815
788.949	761
789.207	723
789.465	637
789.723	604
789.98	574
790.238	601
790.496	568
790.753	550
791.011	577
791.268	541
791.526	524
791.783	529
792.041	522
792.298	432
792.556	512
792.813	492
793.07	463
793.327	445
793.584	519
793.841	451
794.099	484
794.356	515
794.613	447
794.869	483
795.126	426
795.383	416
795.64	455
795.897	402
796.153	455
796.41	449
796.667	433
796.923	454
797.18	429
797.436	470
797.693	435
797.949	462
798.206	505
798.462	428
798.718	486
798.974	452
799.231	538
799.487	504
799.743	510
799.999	530
800.255	528
800.511	522
800.767	571
801.023	567
801.279	617
801.534	651
801.79	708
802.046	760
802.302	903
802.557	1046
802.813	1308
803.068	1642
803.324	2273
803.579	3124
803.835	4400
804.09	6024
804.345	7877
804.601	10006
804.856	12144
805.111	14075
805.366	15523
805.621	16641
805.876	17375
806.131	17934
806.386	18304
806.641	18562
806.896	18940
807.151	19311
807.406	19681
807.661	19974
807.915	20359
808.17	20833
808.425	20989
808.679	21218
808.934	21518
809.188	21775
809.443	22032
809.697	22241
809.951	22500
810.206	22554
810.46	22903
810.714	23107
810.968	23386
811.223	23540
811.477	23895
811.731	23946
811.985	23988
812.239	24233
812.493	24348
812.747	24489
813	24589
813.254	24589
813.508	24924
813.762	24934
814.015	25075
814.269	25411
814.522	25573
814.776	25857
815.03	26379
815.283	26537
815.536	27098
815.79	27358
816.043	27801
816.296	28350
816.55	28613
816.803	28956
817.056	29255
817.309	29618
817.562	29944
817.815	30368
818.068	30523
818.321	30766
818.574	31280
818.827	31745
819.079	32107
819.332	32713
819.585	32967
819.838	33467
820.09	33685
820.343	34119
820.595	34189
820.848	34406
821.1	34671
821.353	34618
821.605	34542
821.857	34503
822.11	34365
822.362	34363
822.614	34263
822.866	34406
823.118	34228
823.37	34579
823.622	34555
823.874	34701
824.126	34798
824.378	34863
824.63	35003
824.882	35029
825.134	35045
825.385	34956
825.637	34923
825.888	34945
826.14	34783
826.392	34651
826.643	34418
826.895	34376
827.146	34380
827.397	34142
827.649	34267
827.9	34217
828.151	34309
828.402	34325
828.653	34527
828.905	34519
829.156	34713
829.407	34590
829.658	34678
829.909	34797
830.159	34810
830.41	34600
830.661	34308
830.912	34265
831.162	34012
831.413	34077
831.664	34054
831.914	34141
832.165	34030
832.415	34012
832.666	33983
832.916	34166
833.167	33936
833.417	34071
833.667	33988
833.917	33840
834.168	33737
834.418	33721
834.668	33548
834.918	33445
835.168	33209
835.418	33098
835.668	33114
835.918	33139
836.167	33044
836.417	32894
836.667	32835
836.917	32853
837.166	32812
837.416	32948
837.666	32918
837.915	32845
838.165	32671
838.414	32632
838.663	32551
838.913	32592
839.162	32458
839.411	32452
839.661	32168
839.91	32356
840.159	32030
840.408	32148
840.657	32134
840.906	32237
841.155	32230
841.404	32163
841.653	32262
841.902	32296
842.15	32380
842.399	32206
842.648	32237
842.897	32116
843.145	32156
843.394	31813
843.642	31733
843.891	31384
844.139	31289
844.388	31131
844.636	30974
844.884	31022
845.133	31058
845.381	31076
845.629	31062
845.877	30911
846.125	31044
846.373	30872
846.621	30970
846.869	30853
847.117	30504
847.365	30345
847.613	30297
847.861	30073
848.108	30150
848.356	30009
848.604	30051
848.851	29965
849.099	30090
849.346	30128
849.594	30380
849.841	30300
850.089	30392
850.336	30422
850.583	30530
850.831	30238
851.078	30174
851.325	30114
851.572	30295
851.819	30013
852.066	29497
852.313	29184
852.56	28914
852.807	28748
853.054	28626
853.301	28671
853.548	28640
853.794	29009
854.041	28950
854.288	29060
854.534	29247
854.781	29240
855.028	29127
855.274	29045
855.52	28923
855.767	28804
856.013	28863
856.26	29095
856.506	28574
856.752	28488
856.998	28649
857.244	28642
857.49	28711
857.736	28835
857.982	28890
858.228	28856
858.474	28679
858.72	28440
858.966	28192
859.212	27850
859.458	27605
859.703	27417
859.949	27082
860.195	26886
860.44	26869
860.686	26733
860.931	26786
861.177	26572
861.422	26572
861.667	26342
861.913	26400
862.158	26488
862.403	26553
862.648	26712
862.893	26717
863.138	26640
863.384	26473
863.629	26655
863.873	26548
864.118	26398
864.363	26361
864.608	26234
864.853	26167
865.098	26051
865.342	26057
865.587	25966
865.832	26001
866.076	25843
866.321	25732
866.565	25684
866.81	25536
867.054	25680
867.298	25416
867.543	25287
867.787	25340
868.031	25229
868.275	25188
868.519	25176
868.764	25250
869.008	25149
869.252	25149
869.496	25055
869.739	25104
869.983	24943
870.227	25073
870.471	24857
870.715	25018
870.958	25078
871.202	25222
871.446	25224
871.689	25179
871.933	25225
872.176	25184
872.42	25131
872.663	25077
872.906	25010
873.15	24908
873.393	24691
873.636	24652
873.879	24620
874.122	24328
874.366	24015
874.609	23839
874.852	23689
875.095	23693
875.337	23505
875.58	23324
875.823	23389
876.066	23292
876.309	23351
876.551	23054
876.794	23083
877.037	22980
877.279	22792
877.522	22957
877.764	22899
878.007	22846
878.249	22827
878.491	22838
878.734	22770
878.976	22669
879.218	22544
879.46	22390
879.702	22334
879.945	22144
880.187	21888
880.429	21864
880.671	21773
880.912	21639
881.154	21678
881.396	21583
881.638	21611
881.88	21553
882.121	21511
882.363	21552
882.605	21518
882.846	21462
883.088	21323
883.329	21302
883.571	21265
883.812	21516
884.053	21714
884.295	22045
884.536	22289
884.777	22196
885.018	21998
885.259	21965
885.5	21895
885.742	22133
885.982	21821
886.223	21643
886.464	21465
886.705	21370
886.946	21145
887.187	20779
887.428	20689
887.668	20410
887.909	20165
888.15	19938
888.39	19829
888.631	19728
888.871	19593
889.111	19432
889.352	19443
889.592	19150
889.833	19101
890.073	18882
890.313	18905
890.553	18680
890.793	18633
891.033	18686
891.273	18464
891.513	18414
891.753	18565
891.993	18457
892.233	18455
892.473	18523
892.713	18558
892.952	18500
893.192	18547
893.432	18576
893.671	18551
893.911	18345
894.15	18226
894.39	18114
894.629	18081
894.869	18152
895.108	17896
895.347	17801
895.587	17867
895.826	17753
896.065	17734
896.304	17825
896.543	17774
896.782	17603
897.021	17581
897.26	17660
897.499	17561
897.738	17551
897.977	17494
898.216	17346
898.454	17153
898.693	17138
898.932	17075
899.17	16998
899.409	17103
899.647	17013
899.886	16886
900.124	17021
900.363	16999
900.601	17060
900.839	16991
901.078	17062
901.316	17123
901.554	17190
901.792	17285
902.03	17293
902.268	17211
902.506	17329
902.744	17086
902.982	17019
903.22	16611
903.458	16442
903.695	16273
903.933	16007
904.171	15738
904.409	15637
904.646	15450
904.884	15090
905.121	15059
905.359	14852
905.596	14723
905.833	14586
906.071	14460
906.308	14419
906.545	14416
906.783	14285
907.02	14364
907.257	14295
907.494	14218
907.731	14127
907.968	14078
908.205	13955
908.442	13898
908.679	13894
908.915	13736
909.152	13657
909.389	13520
909.626	13475
909.862	13317
910.099	13261
910.335	13349
910.572	13179
910.808	13113
911.045	13012
911.281	12989
911.518	12962
911.754	12891
911.99	12883
912.226	12787
912.463	12577
912.699	12623
912.935	12454
913.171	12400
913.407	12262
913.643	12244
913.879	12065
914.114	11982
914.35	11903
914.586	11775
914.822	11683
915.057	11697
915.293	11505
915.529	11543
915.764	11535
916	11537
916.235	11507
916.471	11426
916.706	11349
916.941	11319
917.177	11336
917.412	11386
917.647	11257
917.882	11281
918.117	11264
918.352	11181
918.588	11247
918.823	11086
919.057	10940
919.292	10826
919.527	10858
919.762	10728
919.997	10713
920.232	10567
920.466	10456
920.701	10244
920.935	10247
921.17	10181
921.405	10066
921.639	10139
921.873	10106
922.108	10066
922.342	10019
922.576	9984
922.811	9937
923.045	9956
923.279	9916
923.513	9717
923.747	9775
923.981	9763
924.215	9631
924.449	9556
924.683	9439
924.917	9374
925.151	9430
925.385	9480
925.618	9446
925.852	9359
926.086	9275
926.319	9356
926.553	9247
926.786	9381
927.02	9252
927.253	9306
927.486	9223
927.72	9265
927.953	9236
928.186	9161
928.42	9164
928.653	9099
928.886	9017
929.119	9019
929.352	8967
929.585	8916
929.818	8807
930.051	8826
930.284	8694
930.516	8640
930.749	8590
930.982	8550
931.215	8555
931.447	8479
931.68	8411
931.912	8378
932.145	8435
932.377	8459
932.61	8583
932.842	8342
933.074	8387
933.307	8275
933.539	8412
933.771	8365
934.003	8368
934.236	8434
934.468	8360
934.7	8352
934.932	8356
935.164	8252
935.395	8255
935.627	8216
935.859	8277
936.091	8169
936.323	8119
936.554	8112
936.786	8038
937.017	7968
937.249	7997
937.481	7908
937.712	7995
937.943	7875
938.175	7905
938.406	7910
938.637	7970
938.869	7852
939.1	7899
939.331	7834
939.562	7857
939.793	7828
940.024	7784
940.255	7791
940.486	7708
940.717	7674
940.948	7596
941.179	7549
941.409	7588
941.64	7538
941.871	7524
942.102	7541
942.332	7489
942.563	7545
942.793	7450
943.024	7496
943.254	7472
943.484	7560
943.715	7555
943.945	7473
944.175	7403
944.405	7374
944.636	7407
944.866	7452
945.096	7475
945.326	7408
945.556	7369
945.786	7341
946.016	7301
946.245	7195
946.475	7113
946.705	7158
946.935	7129
947.164	7134
947.394	6966
947.624	6967
947.853	6978
948.083	6994
948.312	6916
948.542	6819
948.771	6785
949	6778
949.23	6827
949.459	6769
949.688	6914
949.917	6762
950.146	6812
950.375	6774
950.604	6744
950.833	6789
951.062	6722
951.291	6681
951.52	6687
951.749	6652
951.978	6576
952.206	6567
952.435	6571
952.664	6624
952.892	6546
953.121	6540
953.349	6474
953.578	6484
953.806	6458
954.035	6399
954.263	6383
954.491	6282
954.719	6347
954.948	6319
955.176	6231
955.404	6174
955.632	6188
955.86	6166
956.088	6135
956.316	6183
956.544	6174
956.772	6043
956.999	5978
957.227	6034
957.455	5906
957.683	5985
957.91	5852
958.138	5817
958.365	5780
958.593	5762
958.82	5738
959.048	5750
959.275	5756
959.502	5674
959.73	5698
959.957	5706
960.184	5727
960.411	5613
960.638	5646
960.865	5620
961.092	5595
961.319	5569
961.546	5610
961.773	5634
962	5589
962.227	5579
962.454	5599
962.68	5515
962.907	5519
963.134	5442
963.36	5444
963.587	5388
963.813	5364
964.04	5365
964.266	5284
964.493	5297
964.719	5312
964.945	5269
965.171	5119
965.398	5165
965.624	5215
965.85	5080
966.076	5032
966.302	5081
966.528	5047
966.754	5086
966.98	5018
967.206	4996
967.431	4915
967.657	5012
967.883	5014
968.109	4922
968.334	4896
968.56	4812
968.785	4860
969.011	4815
969.236	4851
969.462	4763
969.687	4797
969.912	4802
970.138	4824
970.363	4728
970.588	4742
970.813	4726
971.038	4668
971.263	4707
971.488	4654
971.713	4722
971.938	4652
972.163	4580
972.388	4600
972.613	4516
972.838	4546
973.062	4530
973.287	4456
973.512	4441
973.736	4417
973.961	4414
974.185	4382
974.41	4404
974.634	4269
974.858	4314
975.083	4239
975.307	4334
975.531	4233
975.755	4178
975.98	4195
976.204	4102
976.428	4088
976.652	4048
976.876	4045
977.1	4080
977.324	3978
977.547	4071
977.771	4054
977.995	4008
978.219	3976
978.442	4034
978.666	3958
978.89	3941
979.113	3952
979.337	3913
979.56	3881
979.783	3966
980.007	3813
980.23	3876
980.453	3835
980.677	3882
980.9	3830
981.123	3724
981.346	3825
981.569	3801
981.792	3772
982.015	3726
982.238	3677
982.461	3693
982.684	3633
982.907	3550
983.129	3571
983.352	3607
983.575	3552
983.797	3563
984.02	3509
984.242	3518
984.465	3494
984.687	3524
984.91	3525
985.132	3448
985.354	3474
985.577	3420
985.799	3404
986.021	3341
986.243	3361
986.465	3358
986.687	3389
986.909	3392
987.131	3359
987.353	3318
987.575	3372
987.797	3276
988.019	3228
988.241	3281
988.462	3210
988.684	3260
988.906	3258
989.127	3295
989.349	3219
989.57	3201
989.792	3220
990.013	3220
990.234	3241
990.456	3223
990.677	3196
990.898	3112
991.119	3131
991.341	3177
991.562	3088
991.783	3126
992.004	3044
992.225	2984
992.446	3052
992.667	2917
992.887	3014
993.108	2899
993.329	3032
993.55	2934
993.77	2856
993.991	2900
994.212	2885
994.432	2858
994.653	2882
994.873	2878
995.093	2717
995.314	2790
995.534	2855
995.754	2871
995.975	2830
996.195	2717
996.415	2809
996.635	2743
996.855	2773
997.075	2713
997.295	2767
997.515	2745
997.735	2765
997.955	2702
998.174	2712
998.394	2675
998.614	2737
998.834	2663
999.053	2726
999.273	2681
999.492	2711
999.712	2670
999.931	2602
1000.151	2648
1000.37	2641
1000.589	2670
1000.809	2571
1001.028	2667
1001.247	2635
1001.466	2491
1001.685	2614
1001.904	2569
1002.123	2511
1002.342	2494
1002.561	2441
1002.78	2470
1002.999	2533
1003.218	2440
1003.436	2459
1003.655	2485
1003.874	2380
1004.092	2444
1004.311	2427
1004.53	2404
1004.748	2444
1004.966	2418
1005.185	2426
1005.403	2416
1005.622	2385
1005.84	2435
1006.058	2327
1006.276	2395
1006.494	2855
1006.712	2372
1006.931	2418
1007.149	2325
1007.367	2364
1007.584	2393
1007.802	2419
1008.02	2361
1008.238	2464
1008.456	2426
1008.673	2357
1008.891	2474
1009.109	2398
1009.326	2462
1009.544	2540
1009.761	2460
1009.979	2563
1010.196	2601
1010.413	2744
1010.631	2801
1010.848	2864
1011.065	2891
1011.282	2802
1011.5	2762
1011.717	2879
1011.934	2814
1012.151	2843
1012.368	2775
1012.585	2716
1012.801	2779
1013.018	2794
1013.235	2773
1013.452	2799
1013.669	2816
1013.885	2754
1014.102	2818
1014.318	2772
1014.535	2727
1014.751	2791
1014.968	2757
1015.184	2741
1015.401	2652
1015.617	2696
1015.833	2624
1016.049	2629
1016.266	2599
1016.482	2624
1016.698	2518
1016.914	2580
1017.13	2487
1017.346	2516
1017.562	2569
1017.778	2477
1017.993	2471
1018.209	2499
1018.425	2492
1018.641	2447
1018.856	2410
1019.072	2450
1019.288	2510
1019.503	2431
1019.719	2370
1019.934	2385
1020.149	2461
1020.365	2370
1020.58	2275
1020.795	2350
1021.011	2238
1021.226	2212
1021.441	2222
1021.656	2110
1021.871	2018
1022.086	2036
1022.301	2025
1022.516	1967
1022.731	1984
1022.946	1913
1023.16	1886
1023.375	1872
1023.59	1813
1023.804	1770
1024.019	1861
1024.234	1713
1024.448	1736
1024.663	1649
1024.877	1660
1025.092	1624
1025.306	1642
1025.52	1519
1025.734	1571
1025.949	1503
1026.163	1453
1026.377	1393
1026.591	1423
1026.805	1336
1027.019	1327
1027.233	1248
1027.447	1226
1027.661	1307
1027.875	1253
1028.088	1232
1028.302	1176
1028.516	1141
1028.73	1123
1028.943	1077
1029.157	1027
1029.37	963
1029.584	-4
1029.797	-2
1030.011	-1
1030.224	-2
