Data from QEP037381__273__16-15-19-906.txt Node

Date: Fri Dec 16 16:15:19 EST 2022
User: dcclab
Spectrometer: QEP03738
Trigger mode: 4
Integration Time (sec): 1.000000E1
Scans to average: 1
Electric dark correction enabled: true
Nonlinearity correction enabled: false
Boxcar width: 0
XAxis mode: Wavelengths
Number of Pixels in Spectrum: 1044
>>>>>Begin Spectral Data<<<<<
784.041	14
784.3	-5
784.558	-3
784.817	-3
785.075	110624
785.334	19210
785.592	9111
785.851	6235
786.109	4692
786.368	3690
786.626	2974
786.884	2457
787.143	2048
787.401	1716
787.659	1556
787.917	1291
788.175	1170
788.433	1041
788.691	952
788.949	867
789.207	821
789.465	727
789.723	700
789.98	634
790.238	666
790.496	623
790.753	604
791.011	641
791.268	586
791.526	541
791.783	590
792.041	560
792.298	480
792.556	538
792.813	511
793.07	496
793.327	471
793.584	550
793.841	477
794.099	498
794.356	549
794.613	455
794.869	496
795.126	460
795.383	442
795.64	480
795.897	423
796.153	465
796.41	461
796.667	446
796.923	456
797.18	461
797.436	478
797.693	443
797.949	505
798.206	525
798.462	437
798.718	505
798.974	480
799.231	530
799.487	515
799.743	543
799.999	548
800.255	557
800.511	556
800.767	579
801.023	587
801.279	621
801.534	669
801.79	748
802.046	766
802.302	933
802.557	1082
802.813	1379
803.068	1786
803.324	2387
803.579	3325
803.835	4536
804.09	6245
804.345	8123
804.601	10320
804.856	12436
805.111	14442
805.366	15935
805.621	17028
805.876	17803
806.131	18237
806.386	18619
806.641	18990
806.896	19284
807.151	19675
807.406	19932
807.661	20270
807.915	20773
808.17	21008
808.425	21205
808.679	21430
808.934	21664
809.188	21899
809.443	22079
809.697	22326
809.951	22471
810.206	22767
810.46	23045
810.714	23178
810.968	23335
811.223	23504
811.477	23713
811.731	23968
811.985	24044
812.239	24220
812.493	24266
812.747	24302
813	24427
813.254	24513
813.508	24693
813.762	24694
814.015	24833
814.269	25074
814.522	25360
814.776	25542
815.03	25909
815.283	26397
815.536	26551
815.79	26960
816.043	27434
816.296	27929
816.55	28135
816.803	28415
817.056	28894
817.309	29066
817.562	29324
817.815	29723
818.068	29849
818.321	30102
818.574	30547
818.827	30930
819.079	31252
819.332	31618
819.585	32208
819.838	32541
820.09	32743
820.343	32942
820.595	33105
820.848	33409
821.1	33526
821.353	33538
821.605	33439
821.857	33468
822.11	33367
822.362	33303
822.614	33175
822.866	33251
823.118	33166
823.37	33389
823.622	33415
823.874	33495
824.126	33524
824.378	33729
824.63	33775
824.882	33825
825.134	33832
825.385	33724
825.637	33671
825.888	33632
826.14	33741
826.392	33277
826.643	33329
826.895	33118
827.146	33048
827.397	32891
827.649	33098
827.9	32870
828.151	32889
828.402	33073
828.653	33091
828.905	33300
829.156	33311
829.407	33309
829.658	33261
829.909	33357
830.159	33381
830.41	33259
830.661	32914
830.912	32725
831.162	32722
831.413	32615
831.664	32579
831.914	32541
832.165	32515
832.415	32478
832.666	32624
832.916	32503
833.167	32441
833.417	32497
833.667	32336
833.917	32289
834.168	32253
834.418	32224
834.668	32068
834.918	31770
835.168	31813
835.418	31561
835.668	31479
835.918	31543
836.167	31396
836.417	31149
836.667	31174
836.917	31267
837.166	31123
837.416	31243
837.666	31344
837.915	31168
838.165	31097
838.414	31028
838.663	30983
838.913	31092
839.162	30877
839.411	30893
839.661	30765
839.91	30628
840.159	30413
840.408	30660
840.657	30725
840.906	30613
841.155	30626
841.404	30597
841.653	30551
841.902	30602
842.15	30687
842.399	30684
842.648	30613
842.897	30512
843.145	30192
843.394	30200
843.642	30083
843.891	29785
844.139	29731
844.388	29570
844.636	29449
844.884	29438
845.133	29471
845.381	29287
845.629	29358
845.877	29320
846.125	29276
846.373	29220
846.621	29115
846.869	28990
847.117	28887
847.365	28711
847.613	28452
847.861	28406
848.108	28504
848.356	28329
848.604	28333
848.851	28379
849.099	28297
849.346	28391
849.594	28535
849.841	28725
850.089	28704
850.336	28763
850.583	28541
850.831	28430
851.078	28356
851.325	28349
851.572	28416
851.819	28272
852.066	27621
852.313	27182
852.56	27155
852.807	27006
853.054	26972
853.301	26837
853.548	26890
853.794	27045
854.041	27085
854.288	27252
854.534	27538
854.781	27395
855.028	27197
855.274	27274
855.52	27207
855.767	27013
856.013	27108
856.26	27323
856.506	26715
856.752	26681
856.998	26699
857.244	26806
857.49	26964
857.736	26923
857.982	27045
858.228	26841
858.474	26622
858.72	26523
858.966	26194
859.212	25934
859.458	25700
859.703	25551
859.949	25266
860.195	25177
860.44	25002
860.686	24952
860.931	24967
861.177	24723
861.422	24502
861.667	24548
861.913	24583
862.158	24646
862.403	24615
862.648	24693
862.893	24752
863.138	24740
863.384	24602
863.629	24560
863.873	24534
864.118	24514
864.363	24358
864.608	24305
864.853	24271
865.098	24021
865.342	23880
865.587	23839
865.832	23991
866.076	23823
866.321	23787
866.565	23681
866.81	23502
867.054	23425
867.298	23331
867.543	23362
867.787	23337
868.031	23352
868.275	23248
868.519	23145
868.764	23077
869.008	23061
869.252	23068
869.496	22962
869.739	22980
869.983	22916
870.227	22929
870.471	22836
870.715	22945
870.958	22992
871.202	22966
871.446	23099
871.689	23130
871.933	23138
872.176	23015
872.42	23009
872.663	22979
872.906	22875
873.15	22806
873.393	22840
873.636	22722
873.879	22514
874.122	22477
874.366	21975
874.609	21821
874.852	21648
875.095	21588
875.337	21484
875.58	21213
875.823	21252
876.066	21253
876.309	21123
876.551	21086
876.794	20922
877.037	20959
877.279	20783
877.522	20688
877.764	20929
878.007	20660
878.249	20774
878.491	20708
878.734	20688
878.976	20547
879.218	20312
879.46	20401
879.702	20243
879.945	20149
880.187	19939
880.429	19771
880.671	19504
880.912	19647
881.154	19622
881.396	19495
881.638	19533
881.88	19539
882.121	19443
882.363	19531
882.605	19451
882.846	19313
883.088	19296
883.329	19222
883.571	19281
883.812	19399
884.053	19795
884.295	20054
884.536	20333
884.777	20123
885.018	20059
885.259	19956
885.5	19762
885.742	19927
885.982	19869
886.223	19579
886.464	19512
886.705	19365
886.946	19111
887.187	18784
887.428	18609
887.668	18434
887.909	18120
888.15	17955
888.39	17818
888.631	17760
888.871	17579
889.111	17505
889.352	17377
889.592	17159
889.833	17016
890.073	16931
890.313	16864
890.553	16743
890.793	16637
891.033	16618
891.273	16475
891.513	16446
891.753	16457
891.993	16467
892.233	16461
892.473	16453
892.713	16518
892.952	16424
893.192	16497
893.432	16421
893.671	16479
893.911	16309
894.15	16259
894.39	16027
894.629	15997
894.869	15956
895.108	15830
895.347	15650
895.587	15753
895.826	15634
896.065	15622
896.304	15628
896.543	15654
896.782	15503
897.021	15599
897.26	15438
897.499	15514
897.738	15398
897.977	15288
898.216	15198
898.454	15102
898.693	14985
898.932	15006
899.17	14899
899.409	14844
899.647	14764
899.886	14685
900.124	14774
900.363	14833
900.601	14865
900.839	14890
901.078	14976
901.316	15017
901.554	15023
901.792	15023
902.03	14972
902.268	15042
902.506	15016
902.744	14860
902.982	14855
903.22	14602
903.458	14403
903.695	14220
903.933	14057
904.171	13766
904.409	13497
904.646	13420
904.884	13126
905.121	13137
905.359	12942
905.596	12805
905.833	12726
906.071	12624
906.308	12656
906.545	12598
906.783	12452
907.02	12514
907.257	12422
907.494	12372
907.731	12353
907.968	12326
908.205	12216
908.442	12032
908.679	12053
908.915	11978
909.152	11842
909.389	11680
909.626	11709
909.862	11557
910.099	11617
910.335	11507
910.572	11414
910.808	11400
911.045	11350
911.281	11377
911.518	11387
911.754	11228
911.99	11163
912.226	11106
912.463	10969
912.699	10896
912.935	10768
913.171	10761
913.407	10669
913.643	10601
913.879	10487
914.114	10472
914.35	10327
914.586	10217
914.822	10107
915.057	10108
915.293	9983
915.529	9889
915.764	9983
916	9979
916.235	9930
916.471	9862
916.706	9783
916.941	9789
917.177	9717
917.412	9827
917.647	9820
917.882	9675
918.117	9734
918.352	9682
918.588	9670
918.823	9531
919.057	9417
919.292	9334
919.527	9337
919.762	9202
919.997	9131
920.232	8995
920.466	9011
920.701	8809
920.935	8893
921.17	8720
921.405	8664
921.639	8674
921.873	8634
922.108	8588
922.342	8598
922.576	8479
922.811	8492
923.045	8481
923.279	8470
923.513	8282
923.747	8349
923.981	8305
924.215	8262
924.449	8183
924.683	8073
924.917	8119
925.151	8022
925.385	8119
925.618	8007
925.852	7933
926.086	7931
926.319	7981
926.553	7866
926.786	7927
927.02	7887
927.253	7963
927.486	7882
927.72	7817
927.953	7862
928.186	7753
928.42	7799
928.653	7670
928.886	7657
929.119	7711
929.352	7559
929.585	7604
929.818	7516
930.051	7515
930.284	7400
930.516	7344
930.749	7277
930.982	7313
931.215	7253
931.447	7159
931.68	7109
931.912	7107
932.145	7169
932.377	7136
932.61	7237
932.842	7034
933.074	7111
933.307	7071
933.539	7153
933.771	7120
934.003	7063
934.236	7108
934.468	7097
934.7	6989
934.932	7054
935.164	6966
935.395	6936
935.627	6902
935.859	6916
936.091	6823
936.323	6886
936.554	6864
936.786	6796
937.017	6785
937.249	6773
937.481	6692
937.712	6799
937.943	6668
938.175	6663
938.406	6611
938.637	6688
938.869	6620
939.1	6574
939.331	6541
939.562	6603
939.793	6531
940.024	6508
940.255	6551
940.486	6508
940.717	6450
940.948	6373
941.179	6371
941.409	6386
941.64	6318
941.871	6321
942.102	6312
942.332	6312
942.563	6379
942.793	6329
943.024	6270
943.254	6302
943.484	6297
943.715	6374
943.945	6301
944.175	6181
944.405	6165
944.636	6193
944.866	6215
945.096	6173
945.326	6117
945.556	6168
945.786	6197
946.016	6101
946.245	5983
946.475	5966
946.705	5944
946.935	5886
947.164	5875
947.394	5807
947.624	5826
947.853	5857
948.083	5804
948.312	5798
948.542	5681
948.771	5687
949	5644
949.23	5690
949.459	5651
949.688	5672
949.917	5658
950.146	5666
950.375	5695
950.604	5565
950.833	5715
951.062	5627
951.291	5597
951.52	5499
951.749	5518
951.978	5514
952.206	5454
952.435	5495
952.664	5464
952.892	5487
953.121	5421
953.349	5426
953.578	5430
953.806	5358
954.035	5280
954.263	5316
954.491	5179
954.719	5307
954.948	5201
955.176	5187
955.404	5088
955.632	5156
955.86	5109
956.088	5083
956.316	5088
956.544	5108
956.772	5007
956.999	4978
957.227	5029
957.455	4936
957.683	4925
957.91	4902
958.138	4840
958.365	4826
958.593	4827
958.82	4756
959.048	4796
959.275	4801
959.502	4786
959.73	4728
959.957	4738
960.184	4713
960.411	4680
960.638	4747
960.865	4670
961.092	4704
961.319	4630
961.546	4687
961.773	4695
962	4643
962.227	4711
962.454	4615
962.68	4587
962.907	4641
963.134	4528
963.36	4499
963.587	4449
963.813	4424
964.04	4477
964.266	4308
964.493	4378
964.719	4395
964.945	4399
965.171	4303
965.398	4331
965.624	4257
965.85	4227
966.076	4211
966.302	4225
966.528	4187
966.754	4238
966.98	4191
967.206	4156
967.431	4098
967.657	4203
967.883	4123
968.109	4066
968.334	4057
968.56	4051
968.785	4045
969.011	3969
969.236	4004
969.462	3972
969.687	3974
969.912	3998
970.138	3999
970.363	3941
970.588	3962
970.813	3897
971.038	3910
971.263	3886
971.488	3905
971.713	3873
971.938	3880
972.163	3773
972.388	3772
972.613	3741
972.838	3737
973.062	3777
973.287	3772
973.512	3642
973.736	3703
973.961	3667
974.185	3639
974.41	3619
974.634	3534
974.858	3537
975.083	3591
975.307	3592
975.531	3510
975.755	3435
975.98	3433
976.204	3382
976.428	3355
976.652	3418
976.876	3337
977.1	3384
977.324	3314
977.547	3386
977.771	3345
977.995	3335
978.219	3265
978.442	3390
978.666	3313
978.89	3317
979.113	3255
979.337	3237
979.56	3215
979.783	3288
980.007	3184
980.23	3233
980.453	3165
980.677	3250
980.9	3166
981.123	3064
981.346	3125
981.569	3131
981.792	3134
982.015	3066
982.238	3048
982.461	3062
982.684	2995
982.907	2976
983.129	3008
983.352	2972
983.575	2979
983.797	2958
984.02	2933
984.242	2935
984.465	2917
984.687	2900
984.91	2936
985.132	2890
985.354	2922
985.577	2853
985.799	2834
986.021	2746
986.243	2837
986.465	2820
986.687	2827
986.909	2844
987.131	2791
987.353	2726
987.575	2810
987.797	2693
988.019	2690
988.241	2765
988.462	2641
988.684	2749
988.906	2786
989.127	2723
989.349	2648
989.57	2665
989.792	2697
990.013	2720
990.234	2713
990.456	2694
990.677	2675
990.898	2626
991.119	2610
991.341	2621
991.562	2549
991.783	2590
992.004	2544
992.225	2496
992.446	2523
992.667	2483
992.887	2518
993.108	2429
993.329	2558
993.55	2466
993.77	2416
993.991	2397
994.212	2425
994.432	2406
994.653	2419
994.873	2407
995.093	2294
995.314	2327
995.534	2387
995.754	2386
995.975	2422
996.195	2288
996.415	2326
996.635	2313
996.855	2344
997.075	2302
997.295	2295
997.515	2267
997.735	2337
997.955	2312
998.174	2271
998.394	2271
998.614	2327
998.834	2258
999.053	2346
999.273	2286
999.492	2346
999.712	2232
999.931	2225
1000.151	2212
1000.37	2213
1000.589	2251
1000.809	2192
1001.028	2266
1001.247	2234
1001.466	2111
1001.685	2249
1001.904	2167
1002.123	2144
1002.342	2175
1002.561	2091
1002.78	2116
1002.999	2172
1003.218	2090
1003.436	2074
1003.655	2107
1003.874	2044
1004.092	2062
1004.311	2097
1004.53	2059
1004.748	2125
1004.966	2034
1005.185	2097
1005.403	2091
1005.622	2052
1005.84	2133
1006.058	2005
1006.276	2030
1006.494	2531
1006.712	2029
1006.931	2068
1007.149	1987
1007.367	2025
1007.584	2071
1007.802	2113
1008.02	2024
1008.238	2137
1008.456	2090
1008.673	1999
1008.891	2107
1009.109	2074
1009.326	2124
1009.544	2219
1009.761	2157
1009.979	2275
1010.196	2273
1010.413	2388
1010.631	2478
1010.848	2535
1011.065	2570
1011.282	2490
1011.5	2462
1011.717	2531
1011.934	2446
1012.151	2510
1012.368	2456
1012.585	2393
1012.801	2470
1013.018	2437
1013.235	2417
1013.452	2435
1013.669	2446
1013.885	2405
1014.102	2469
1014.318	2412
1014.535	2388
1014.751	2372
1014.968	2392
1015.184	2413
1015.401	2346
1015.617	2372
1015.833	2291
1016.049	2292
1016.266	2222
1016.482	2242
1016.698	2160
1016.914	2197
1017.13	2143
1017.346	2139
1017.562	2177
1017.778	2108
1017.993	2075
1018.209	2161
1018.425	2113
1018.641	2099
1018.856	2042
1019.072	2078
1019.288	2125
1019.503	2070
1019.719	1987
1019.934	2006
1020.149	2095
1020.365	1983
1020.58	1939
1020.795	1958
1021.011	1900
1021.226	1865
1021.441	1867
1021.656	1785
1021.871	1706
1022.086	1685
1022.301	1669
1022.516	1646
1022.731	1666
1022.946	1608
1023.16	1572
1023.375	1543
1023.59	1490
1023.804	1467
1024.019	1564
1024.234	1411
1024.448	1432
1024.663	1387
1024.877	1366
1025.092	1374
1025.306	1353
1025.52	1256
1025.734	1324
1025.949	1251
1026.163	1218
1026.377	1145
1026.591	1190
1026.805	1116
1027.019	1115
1027.233	1055
1027.447	994
1027.661	1111
1027.875	1029
1028.088	1028
1028.302	952
1028.516	949
1028.73	932
1028.943	905
1029.157	879
1029.37	814
1029.584	2
1029.797	-3
1030.011	-1
1030.224	-1
