Data from QEP037381__301__16-19-59-909.txt Node

Date: Fri Dec 16 16:19:59 EST 2022
User: dcclab
Spectrometer: QEP03738
Trigger mode: 4
Integration Time (sec): 1.000000E1
Scans to average: 1
Electric dark correction enabled: true
Nonlinearity correction enabled: false
Boxcar width: 0
XAxis mode: Wavelengths
Number of Pixels in Spectrum: 1044
>>>>>Begin Spectral Data<<<<<
784.041	11
784.3	1
784.558	-5
784.817	-2
785.075	110066
785.334	19117
785.592	8994
785.851	6196
786.109	4645
786.368	3625
786.626	2904
786.884	2440
787.143	2002
787.401	1707
787.659	1519
787.917	1300
788.175	1174
788.433	1024
788.691	918
788.949	864
789.207	819
789.465	726
789.723	696
789.98	620
790.238	669
790.496	619
790.753	601
791.011	654
791.268	565
791.526	568
791.783	565
792.041	556
792.298	479
792.556	539
792.813	522
793.07	514
793.327	493
793.584	547
793.841	496
794.099	505
794.356	557
794.613	469
794.869	513
795.126	461
795.383	430
795.64	469
795.897	425
796.153	480
796.41	459
796.667	460
796.923	460
797.18	466
797.436	480
797.693	449
797.949	508
798.206	540
798.462	449
798.718	507
798.974	494
799.231	534
799.487	540
799.743	538
799.999	563
800.255	570
800.511	549
800.767	618
801.023	603
801.279	666
801.534	700
801.79	769
802.046	818
802.302	1001
802.557	1162
802.813	1473
803.068	1878
803.324	2632
803.579	3608
803.835	5042
804.09	6973
804.345	9137
804.601	11523
804.856	13954
805.111	16195
805.366	17879
805.621	19172
805.876	20086
806.131	20539
806.386	20965
806.641	21390
806.896	21740
807.151	22114
807.406	22508
807.661	22791
807.915	23338
808.17	23693
808.425	23883
808.679	24152
808.934	24421
809.188	24586
809.443	24954
809.697	25229
809.951	25463
810.206	25687
810.46	25865
810.714	26116
810.968	26427
811.223	26562
811.477	26817
811.731	27030
811.985	27256
812.239	27305
812.493	27392
812.747	27499
813	27667
813.254	27824
813.508	27903
813.762	28052
814.015	28253
814.269	28382
814.522	28653
814.776	28976
815.03	29390
815.283	29728
815.536	30391
815.79	30663
816.043	31119
816.296	31526
816.55	31875
816.803	32309
817.056	32832
817.309	33027
817.562	33510
817.815	33851
818.068	34061
818.321	34339
818.574	34744
818.827	35249
819.079	35724
819.332	36250
819.585	36691
819.838	37137
820.09	37338
820.343	37744
820.595	37913
820.848	38196
821.1	38233
821.353	38402
821.605	38208
821.857	38244
822.11	38033
822.362	37900
822.614	37893
822.866	38000
823.118	38087
823.37	38235
823.622	38155
823.874	38497
824.126	38460
824.378	38591
824.63	38642
824.882	38855
825.134	38772
825.385	38667
825.637	38571
825.888	38456
826.14	38549
826.392	38317
826.643	38186
826.895	38074
827.146	37840
827.397	37780
827.649	37838
827.9	37776
828.151	37839
828.402	38084
828.653	38072
828.905	38080
829.156	38200
829.407	38215
829.658	38226
829.909	38244
830.159	38274
830.41	38098
830.661	37836
830.912	37663
831.162	37486
831.413	37611
831.664	37437
831.914	37430
832.165	37247
832.415	37488
832.666	37304
832.916	37453
833.167	37414
833.417	37416
833.667	37236
833.917	36998
834.168	37030
834.418	36881
834.668	36729
834.918	36662
835.168	36436
835.418	36398
835.668	36294
835.918	36179
836.167	36114
836.417	35927
836.667	36000
836.917	35918
837.166	35871
837.416	35998
837.666	35975
837.915	35931
838.165	35761
838.414	35750
838.663	35668
838.913	35625
839.162	35722
839.411	35454
839.661	35380
839.91	35102
840.159	35231
840.408	35053
840.657	35155
840.906	35075
841.155	35126
841.404	35149
841.653	35254
841.902	35283
842.15	35333
842.399	35172
842.648	35212
842.897	35080
843.145	34876
843.394	34587
843.642	34431
843.891	34394
844.139	34237
844.388	34023
844.636	33821
844.884	33991
845.133	33879
845.381	33791
845.629	33706
845.877	33717
846.125	33802
846.373	33699
846.621	33656
846.869	33527
847.117	33244
847.365	33051
847.613	33040
847.861	32909
848.108	32920
848.356	32779
848.604	32790
848.851	32609
849.099	32715
849.346	32767
849.594	33155
849.841	33109
850.089	33138
850.336	33122
850.583	33125
850.831	32979
851.078	32818
851.325	32767
851.572	32733
851.819	32509
852.066	31984
852.313	31535
852.56	31323
852.807	31136
853.054	30973
853.301	31007
853.548	31052
853.794	31183
854.041	31272
854.288	31406
854.534	31719
854.781	31702
855.028	31435
855.274	31510
855.52	31204
855.767	31137
856.013	31205
856.26	31493
856.506	30867
856.752	30928
856.998	30909
857.244	30959
857.49	31083
857.736	31136
857.982	31200
858.228	31101
858.474	30705
858.72	30627
858.966	30427
859.212	30087
859.458	29770
859.703	29586
859.949	29222
860.195	29101
860.44	28970
860.686	28728
860.931	28787
861.177	28601
861.422	28570
861.667	28472
861.913	28496
862.158	28309
862.403	28403
862.648	28578
862.893	28585
863.138	28536
863.384	28433
863.629	28415
863.873	28353
864.118	28337
864.363	28257
864.608	28019
864.853	27987
865.098	27923
865.342	27781
865.587	27575
865.832	27601
866.076	27566
866.321	27397
866.565	27498
866.81	27321
867.054	27262
867.298	27148
867.543	26918
867.787	27102
868.031	26767
868.275	26800
868.519	26768
868.764	26823
869.008	26630
869.252	26680
869.496	26557
869.739	26507
869.983	26479
870.227	26549
870.471	26472
870.715	26644
870.958	26595
871.202	26596
871.446	26751
871.689	26569
871.933	26745
872.176	26647
872.42	26428
872.663	26489
872.906	26388
873.15	26208
873.393	26194
873.636	26239
873.879	25951
874.122	25740
874.366	25325
874.609	25150
874.852	25031
875.095	24899
875.337	24839
875.58	24563
875.823	24645
876.066	24520
876.309	24430
876.551	24286
876.794	24185
877.037	24112
877.279	24012
877.522	24084
877.764	24074
878.007	24022
878.249	23971
878.491	23841
878.734	23878
878.976	23734
879.218	23628
879.46	23550
879.702	23472
879.945	23130
880.187	22948
880.429	22854
880.671	22703
880.912	22606
881.154	22686
881.396	22457
881.638	22470
881.88	22453
882.121	22495
882.363	22512
882.605	22515
882.846	22363
883.088	22276
883.329	22224
883.571	22299
883.812	22395
884.053	22720
884.295	23079
884.536	23211
884.777	23183
885.018	22954
885.259	22999
885.5	22768
885.742	22868
885.982	22640
886.223	22489
886.464	22326
886.705	22124
886.946	21887
887.187	21589
887.428	21471
887.668	21163
887.909	20905
888.15	20638
888.39	20527
888.631	20360
888.871	20296
889.111	20080
889.352	19942
889.592	19752
889.833	19671
890.073	19523
890.313	19543
890.553	19225
890.793	19124
891.033	19144
891.273	18946
891.513	18980
891.753	18885
891.993	18854
892.233	18884
892.473	19070
892.713	18973
892.952	18970
893.192	18943
893.432	18777
893.671	18942
893.911	18785
894.15	18700
894.39	18451
894.629	18445
894.869	18369
895.108	18265
895.347	18136
895.587	18115
895.826	18042
896.065	17986
896.304	18013
896.543	18000
896.782	17792
897.021	17822
897.26	17715
897.499	17720
897.738	17667
897.977	17591
898.216	17467
898.454	17326
898.693	17212
898.932	17160
899.17	17090
899.409	16962
899.647	17024
899.886	16951
900.124	16992
900.363	16926
900.601	16988
900.839	17006
901.078	17014
901.316	16965
901.554	17123
901.792	17162
902.03	17146
902.268	17067
902.506	17042
902.744	16884
902.982	16882
903.22	16634
903.458	16399
903.695	16247
903.933	15998
904.171	15715
904.409	15493
904.646	15357
904.884	15088
905.121	15038
905.359	14828
905.596	14676
905.833	14435
906.071	14432
906.308	14456
906.545	14341
906.783	14223
907.02	14260
907.257	14118
907.494	14265
907.731	14107
907.968	14100
908.205	13956
908.442	13908
908.679	13843
908.915	13661
909.152	13664
909.389	13427
909.626	13345
909.862	13344
910.099	13198
910.335	13194
910.572	13014
910.808	13004
911.045	13003
911.281	12902
911.518	12981
911.754	12702
911.99	12767
912.226	12699
912.463	12489
912.699	12470
912.935	12430
913.171	12265
913.407	12195
913.643	12139
913.879	11969
914.114	11910
914.35	11712
914.586	11691
914.822	11528
915.057	11549
915.293	11333
915.529	11297
915.764	11349
916	11262
916.235	11316
916.471	11200
916.706	11056
916.941	11137
917.177	11168
917.412	11188
917.647	11089
917.882	11027
918.117	11041
918.352	11023
918.588	11001
918.823	10896
919.057	10705
919.292	10512
919.527	10576
919.762	10398
919.997	10365
920.232	10203
920.466	10172
920.701	10066
920.935	10023
921.17	9916
921.405	9863
921.639	9931
921.873	9818
922.108	9828
922.342	9761
922.576	9658
922.811	9594
923.045	9646
923.279	9681
923.513	9434
923.747	9510
923.981	9453
924.215	9273
924.449	9297
924.683	9170
924.917	9140
925.151	9087
925.385	9074
925.618	9082
925.852	9048
926.086	8949
926.319	9013
926.553	8943
926.786	8915
927.02	8947
927.253	8953
927.486	8932
927.72	8862
927.953	8848
928.186	8758
928.42	8818
928.653	8716
928.886	8615
929.119	8660
929.352	8654
929.585	8593
929.818	8444
930.051	8481
930.284	8414
930.516	8279
930.749	8174
930.982	8215
931.215	8139
931.447	8076
931.68	8093
931.912	8059
932.145	7984
932.377	8069
932.61	8154
932.842	7953
933.074	8108
933.307	7948
933.539	8028
933.771	8057
934.003	7899
934.236	7987
934.468	8007
934.7	7910
934.932	8038
935.164	7837
935.395	7830
935.627	7877
935.859	7767
936.091	7735
936.323	7764
936.554	7796
936.786	7650
937.017	7566
937.249	7572
937.481	7525
937.712	7567
937.943	7547
938.175	7476
938.406	7522
938.637	7543
938.869	7480
939.1	7431
939.331	7427
939.562	7464
939.793	7334
940.024	7398
940.255	7344
940.486	7259
940.717	7257
940.948	7192
941.179	7062
941.409	7125
941.64	7112
941.871	7104
942.102	7062
942.332	7114
942.563	7089
942.793	7097
943.024	7039
943.254	7090
943.484	7135
943.715	7131
943.945	7115
944.175	6990
944.405	6992
944.636	6999
944.866	7008
945.096	6987
945.326	6896
945.556	6983
945.786	6919
946.016	6850
946.245	6783
946.475	6749
946.705	6696
946.935	6645
947.164	6635
947.394	6559
947.624	6522
947.853	6575
948.083	6465
948.312	6412
948.542	6427
948.771	6328
949	6370
949.23	6370
949.459	6379
949.688	6383
949.917	6305
950.146	6350
950.375	6370
950.604	6276
950.833	6328
951.062	6324
951.291	6267
951.52	6238
951.749	6217
951.978	6168
952.206	6150
952.435	6085
952.664	6173
952.892	6117
953.121	6062
953.349	6113
953.578	6039
953.806	6012
954.035	5976
954.263	5970
954.491	5879
954.719	5918
954.948	5823
955.176	5831
955.404	5725
955.632	5800
955.86	5703
956.088	5727
956.316	5719
956.544	5701
956.772	5625
956.999	5546
957.227	5644
957.455	5484
957.683	5466
957.91	5486
958.138	5449
958.365	5409
958.593	5357
958.82	5338
959.048	5407
959.275	5356
959.502	5308
959.73	5271
959.957	5320
960.184	5348
960.411	5234
960.638	5305
960.865	5256
961.092	5245
961.319	5139
961.546	5252
961.773	5250
962	5158
962.227	5273
962.454	5179
962.68	5074
962.907	5173
963.134	5120
963.36	5060
963.587	5073
963.813	4973
964.04	4944
964.266	4851
964.493	4949
964.719	4975
964.945	4863
965.171	4796
965.398	4811
965.624	4795
965.85	4745
966.076	4672
966.302	4682
966.528	4675
966.754	4733
966.98	4673
967.206	4653
967.431	4538
967.657	4593
967.883	4629
968.109	4617
968.334	4499
968.56	4530
968.785	4503
969.011	4448
969.236	4564
969.462	4456
969.687	4423
969.912	4463
970.138	4522
970.363	4373
970.588	4429
970.813	4321
971.038	4332
971.263	4353
971.488	4348
971.713	4371
971.938	4330
972.163	4203
972.388	4196
972.613	4154
972.838	4199
973.062	4177
973.287	4151
973.512	4075
973.736	4055
973.961	4065
974.185	4046
974.41	4069
974.634	3975
974.858	3977
975.083	3953
975.307	3956
975.531	3901
975.755	3776
975.98	3865
976.204	3805
976.428	3766
976.652	3737
976.876	3762
977.1	3781
977.324	3663
977.547	3764
977.771	3742
977.995	3699
978.219	3602
978.442	3762
978.666	3685
978.89	3691
979.113	3674
979.337	3612
979.56	3591
979.783	3632
980.007	3535
980.23	3598
980.453	3550
980.677	3523
980.9	3508
981.123	3433
981.346	3538
981.569	3480
981.792	3508
982.015	3419
982.238	3413
982.461	3405
982.684	3366
982.907	3354
983.129	3342
983.352	3348
983.575	3282
983.797	3343
984.02	3218
984.242	3263
984.465	3233
984.687	3233
984.91	3269
985.132	3192
985.354	3264
985.577	3191
985.799	3141
986.021	3057
986.243	3087
986.465	3128
986.687	3115
986.909	3144
987.131	3094
987.353	3042
987.575	3098
987.797	3036
988.019	2941
988.241	3028
988.462	2987
988.684	3049
988.906	3055
989.127	3053
989.349	2943
989.57	2967
989.792	2990
990.013	2983
990.234	2962
990.456	2984
990.677	2987
990.898	2902
991.119	2893
991.341	2915
991.562	2825
991.783	2860
992.004	2834
992.225	2761
992.446	2813
992.667	2718
992.887	2792
993.108	2680
993.329	2816
993.55	2756
993.77	2691
993.991	2667
994.212	2704
994.432	2655
994.653	2665
994.873	2665
995.093	2507
995.314	2555
995.534	2631
995.754	2632
995.975	2680
996.195	2528
996.415	2584
996.635	2552
996.855	2563
997.075	2525
997.295	2533
997.515	2525
997.735	2578
997.955	2516
998.174	2531
998.394	2472
998.614	2508
998.834	2465
999.053	2568
999.273	2496
999.492	2554
999.712	2472
999.931	2408
1000.151	2439
1000.37	2433
1000.589	2456
1000.809	2395
1001.028	2517
1001.247	2411
1001.466	2312
1001.685	2441
1001.904	2362
1002.123	2319
1002.342	2339
1002.561	2275
1002.78	2289
1002.999	2324
1003.218	2294
1003.436	2270
1003.655	2305
1003.874	2230
1004.092	2247
1004.311	2274
1004.53	2235
1004.748	2294
1004.966	2210
1005.185	2296
1005.403	2303
1005.622	2233
1005.84	2306
1006.058	2175
1006.276	2228
1006.494	2691
1006.712	2230
1006.931	2239
1007.149	2167
1007.367	2152
1007.584	2212
1007.802	2254
1008.02	2209
1008.238	2323
1008.456	2286
1008.673	2164
1008.891	2259
1009.109	2251
1009.326	2289
1009.544	2387
1009.761	2363
1009.979	2473
1010.196	2506
1010.413	2618
1010.631	2653
1010.848	2747
1011.065	2760
1011.282	2738
1011.5	2666
1011.717	2747
1011.934	2648
1012.151	2634
1012.368	2668
1012.585	2597
1012.801	2653
1013.018	2636
1013.235	2614
1013.452	2599
1013.669	2625
1013.885	2613
1014.102	2667
1014.318	2651
1014.535	2570
1014.751	2591
1014.968	2626
1015.184	2587
1015.401	2504
1015.617	2521
1015.833	2470
1016.049	2458
1016.266	2451
1016.482	2412
1016.698	2316
1016.914	2383
1017.13	2303
1017.346	2294
1017.562	2338
1017.778	2286
1017.993	2276
1018.209	2275
1018.425	2272
1018.641	2236
1018.856	2214
1019.072	2255
1019.288	2294
1019.503	2213
1019.719	2191
1019.934	2152
1020.149	2205
1020.365	2112
1020.58	2085
1020.795	2132
1021.011	2035
1021.226	2003
1021.441	2005
1021.656	1893
1021.871	1833
1022.086	1797
1022.301	1780
1022.516	1773
1022.731	1795
1022.946	1736
1023.16	1692
1023.375	1651
1023.59	1642
1023.804	1601
1024.019	1676
1024.234	1520
1024.448	1565
1024.663	1487
1024.877	1481
1025.092	1461
1025.306	1465
1025.52	1350
1025.734	1434
1025.949	1341
1026.163	1301
1026.377	1225
1026.591	1261
1026.805	1192
1027.019	1164
1027.233	1121
1027.447	1083
1027.661	1198
1027.875	1100
1028.088	1117
1028.302	1028
1028.516	1000
1028.73	995
1028.943	974
1029.157	898
1029.37	862
1029.584	0
1029.797	-2
1030.011	0
1030.224	-3
