Data from QEP037381__268__16-14-29-904.txt Node

Date: Fri Dec 16 16:14:29 EST 2022
User: dcclab
Spectrometer: QEP03738
Trigger mode: 4
Integration Time (sec): 1.000000E1
Scans to average: 1
Electric dark correction enabled: true
Nonlinearity correction enabled: false
Boxcar width: 0
XAxis mode: Wavelengths
Number of Pixels in Spectrum: 1044
>>>>>Begin Spectral Data<<<<<
784.041	15
784.3	0
784.558	-1
784.817	-5
785.075	107946
785.334	18807
785.592	8885
785.851	6058
786.109	4609
786.368	3598
786.626	2912
786.884	2434
787.143	2021
787.401	1695
787.659	1539
787.917	1281
788.175	1192
788.433	1048
788.691	944
788.949	877
789.207	823
789.465	717
789.723	677
789.98	636
790.238	667
790.496	628
790.753	593
791.011	645
791.268	579
791.526	568
791.783	590
792.041	554
792.298	479
792.556	532
792.813	526
793.07	497
793.327	481
793.584	567
793.841	485
794.099	508
794.356	560
794.613	458
794.869	493
795.126	465
795.383	441
795.64	461
795.897	425
796.153	474
796.41	461
796.667	460
796.923	448
797.18	450
797.436	493
797.693	458
797.949	506
798.206	528
798.462	446
798.718	514
798.974	494
799.231	533
799.487	527
799.743	547
799.999	564
800.255	560
800.511	556
800.767	611
801.023	613
801.279	631
801.534	690
801.79	755
802.046	806
802.302	980
802.557	1150
802.813	1453
803.068	1830
803.324	2560
803.579	3494
803.835	4825
804.09	6715
804.345	8697
804.601	11087
804.856	13397
805.111	15403
805.366	17079
805.621	18216
805.876	19146
806.131	19683
806.386	20173
806.641	20531
806.896	20744
807.151	21218
807.406	21544
807.661	22028
807.915	22378
808.17	22816
808.425	23006
808.679	23036
808.934	23551
809.188	23554
809.443	23911
809.697	24163
809.951	24355
810.206	24432
810.46	24756
810.714	25007
810.968	25268
811.223	25402
811.477	25650
811.731	25926
811.985	26010
812.239	26093
812.493	26267
812.747	26380
813	26508
813.254	26497
813.508	26735
813.762	26730
814.015	26974
814.269	27102
814.522	27407
814.776	27602
815.03	27997
815.283	28340
815.536	28866
815.79	29298
816.043	29825
816.296	30188
816.55	30479
816.803	30814
817.056	31284
817.309	31519
817.562	31883
817.815	32262
818.068	32362
818.321	32706
818.574	33179
818.827	33418
819.079	33953
819.332	34501
819.585	34798
819.838	35306
820.09	35370
820.343	35800
820.595	35998
820.848	36231
821.1	36379
821.353	36328
821.605	36340
821.857	36354
822.11	36077
822.362	36133
822.614	35911
822.866	36006
823.118	35979
823.37	36320
823.622	36402
823.874	36229
824.126	36479
824.378	36559
824.63	36629
824.882	36734
825.134	36637
825.385	36585
825.637	36659
825.888	36499
826.14	36553
826.392	36287
826.643	36166
826.895	36066
827.146	35841
827.397	35679
827.649	35834
827.9	35748
828.151	35771
828.402	35861
828.653	35993
828.905	36188
829.156	36095
829.407	36182
829.658	36173
829.909	36306
830.159	36162
830.41	36020
830.661	35837
830.912	35493
831.162	35490
831.413	35414
831.664	35530
831.914	35382
832.165	35393
832.415	35481
832.666	35471
832.916	35430
833.167	35378
833.417	35443
833.667	35267
833.917	35245
834.168	34906
834.418	34942
834.668	34853
834.918	34673
835.168	34516
835.418	34234
835.668	34235
835.918	34204
836.167	34018
836.417	34128
836.667	33944
836.917	33927
837.166	33844
837.416	34113
837.666	33997
837.915	33951
838.165	33792
838.414	33760
838.663	33748
838.913	33661
839.162	33415
839.411	33431
839.661	33246
839.91	33220
840.159	33233
840.408	33234
840.657	33250
840.906	33289
841.155	33154
841.404	33119
841.653	33330
841.902	33328
842.15	33297
842.399	33319
842.648	33329
842.897	33095
843.145	32932
843.394	32833
843.642	32622
843.891	32436
844.139	32141
844.388	32092
844.636	31923
844.884	32068
845.133	31996
845.381	32015
845.629	31927
845.877	31814
846.125	31816
846.373	31797
846.621	31722
846.869	31454
847.117	31431
847.365	31195
847.613	31111
847.861	30959
848.108	30947
848.356	30834
848.604	30788
848.851	30726
849.099	30862
849.346	30775
849.594	31056
849.841	31169
850.089	31137
850.336	31166
850.583	31080
850.831	30964
851.078	30640
851.325	30820
851.572	30885
851.819	30651
852.066	30159
852.313	29671
852.56	29519
852.807	29465
853.054	29190
853.301	29238
853.548	29248
853.794	29334
854.041	29431
854.288	29557
854.534	29765
854.781	29714
855.028	29549
855.274	29633
855.52	29468
855.767	29323
856.013	29412
856.26	29825
856.506	29025
856.752	28982
856.998	29131
857.244	29073
857.49	29217
857.736	29266
857.982	29354
858.228	29233
858.474	29058
858.72	28786
858.966	28559
859.212	28309
859.458	28015
859.703	27674
859.949	27453
860.195	27336
860.44	27203
860.686	27070
860.931	26962
861.177	26901
861.422	26780
861.667	26671
861.913	26760
862.158	26717
862.403	26713
862.648	26735
862.893	26778
863.138	26782
863.384	26649
863.629	26665
863.873	26655
864.118	26478
864.363	26483
864.608	26459
864.853	26247
865.098	26130
865.342	25996
865.587	25843
865.832	25893
866.076	25780
866.321	25820
866.565	25864
866.81	25500
867.054	25455
867.298	25415
867.543	25393
867.787	25220
868.031	25241
868.275	25150
868.519	25094
868.764	25023
869.008	25140
869.252	25025
869.496	24898
869.739	24859
869.983	24941
870.227	24806
870.471	24872
870.715	24784
870.958	24964
871.202	25022
871.446	25153
871.689	25166
871.933	25142
872.176	25012
872.42	24941
872.663	24957
872.906	24929
873.15	24757
873.393	24706
873.636	24667
873.879	24519
874.122	24081
874.366	23854
874.609	23674
874.852	23485
875.095	23351
875.337	23267
875.58	23068
875.823	23030
876.066	22977
876.309	22938
876.551	22747
876.794	22725
877.037	22733
877.279	22527
877.522	22495
877.764	22553
878.007	22478
878.249	22519
878.491	22397
878.734	22465
878.976	22371
879.218	22120
879.46	22012
879.702	22001
879.945	21765
880.187	21531
880.429	21456
880.671	21396
880.912	21236
881.154	21137
881.396	21065
881.638	21144
881.88	21241
882.121	20971
882.363	21045
882.605	21050
882.846	20948
883.088	21012
883.329	20850
883.571	20876
883.812	21049
884.053	21352
884.295	21654
884.536	21884
884.777	21800
885.018	21691
885.259	21602
885.5	21423
885.742	21619
885.982	21443
886.223	21243
886.464	21077
886.705	20813
886.946	20631
887.187	20368
887.428	20273
887.668	19886
887.909	19585
888.15	19473
888.39	19296
888.631	19232
888.871	19077
889.111	18815
889.352	18748
889.592	18598
889.833	18390
890.073	18354
890.313	18312
890.553	18079
890.793	18054
891.033	17989
891.273	17782
891.513	17721
891.753	17720
891.993	17651
892.233	17748
892.473	17841
892.713	17858
892.952	17719
893.192	17897
893.432	17786
893.671	17807
893.911	17567
894.15	17466
894.39	17328
894.629	17330
894.869	17180
895.108	17169
895.347	17027
895.587	17103
895.826	17061
896.065	16978
896.304	16932
896.543	16887
896.782	16743
897.021	16796
897.26	16773
897.499	16760
897.738	16713
897.977	16560
898.216	16497
898.454	16311
898.693	16173
898.932	16186
899.17	15982
899.409	16048
899.647	15958
899.886	15968
900.124	15897
900.363	15918
900.601	16048
900.839	16081
901.078	16051
901.316	16137
901.554	16186
901.792	16236
902.03	16171
902.268	16173
902.506	16180
902.744	15941
902.982	15991
903.22	15633
903.458	15504
903.695	15231
903.933	15078
904.171	14809
904.409	14595
904.646	14459
904.884	14163
905.121	14213
905.359	13948
905.596	13783
905.833	13639
906.071	13686
906.308	13628
906.545	13577
906.783	13494
907.02	13500
907.257	13367
907.494	13374
907.731	13277
907.968	13138
908.205	13112
908.442	13075
908.679	12966
908.915	12935
909.152	12779
909.389	12697
909.626	12596
909.862	12507
910.099	12441
910.335	12423
910.572	12340
910.808	12361
911.045	12278
911.281	12221
911.518	12138
911.754	12097
911.99	12044
912.226	11940
912.463	11858
912.699	11735
912.935	11659
913.171	11599
913.407	11442
913.643	11376
913.879	11261
914.114	11208
914.35	11040
914.586	10983
914.822	10929
915.057	10968
915.293	10680
915.529	10638
915.764	10743
916	10622
916.235	10593
916.471	10600
916.706	10530
916.941	10562
917.177	10494
917.412	10529
917.647	10491
917.882	10352
918.117	10480
918.352	10419
918.588	10410
918.823	10289
919.057	10122
919.292	10068
919.527	10078
919.762	9814
919.997	9909
920.232	9718
920.466	9668
920.701	9533
920.935	9502
921.17	9396
921.405	9324
921.639	9343
921.873	9301
922.108	9349
922.342	9224
922.576	9144
922.811	9112
923.045	9127
923.279	9166
923.513	8910
923.747	8935
923.981	8930
924.215	8791
924.449	8814
924.683	8711
924.917	8657
925.151	8583
925.385	8656
925.618	8630
925.852	8616
926.086	8480
926.319	8514
926.553	8488
926.786	8526
927.02	8497
927.253	8489
927.486	8473
927.72	8383
927.953	8434
928.186	8324
928.42	8385
928.653	8281
928.886	8218
929.119	8225
929.352	8246
929.585	8162
929.818	8057
930.051	8044
930.284	7934
930.516	7843
930.749	7759
930.982	7875
931.215	7746
931.447	7673
931.68	7647
931.912	7615
932.145	7653
932.377	7628
932.61	7702
932.842	7549
933.074	7674
933.307	7592
933.539	7581
933.771	7622
934.003	7584
934.236	7618
934.468	7635
934.7	7507
934.932	7559
935.164	7485
935.395	7474
935.627	7534
935.859	7435
936.091	7332
936.323	7377
936.554	7371
936.786	7324
937.017	7196
937.249	7219
937.481	7124
937.712	7214
937.943	7213
938.175	7138
938.406	7104
938.637	7171
938.869	7072
939.1	7097
939.331	7037
939.562	7114
939.793	7072
940.024	7032
940.255	7024
940.486	6886
940.717	6870
940.948	6831
941.179	6759
941.409	6827
941.64	6831
941.871	6769
942.102	6794
942.332	6739
942.563	6796
942.793	6772
943.024	6742
943.254	6701
943.484	6737
943.715	6807
943.945	6773
944.175	6683
944.405	6657
944.636	6625
944.866	6673
945.096	6705
945.326	6565
945.556	6609
945.786	6596
946.016	6455
946.245	6443
946.475	6389
946.705	6382
946.935	6342
947.164	6301
947.394	6226
947.624	6232
947.853	6232
948.083	6177
948.312	6132
948.542	6090
948.771	6084
949	6122
949.23	6030
949.459	6054
949.688	6144
949.917	6036
950.146	6038
950.375	6138
950.604	6006
950.833	6108
951.062	6040
951.291	5957
951.52	5940
951.749	5914
951.978	5893
952.206	5837
952.435	5821
952.664	5853
952.892	5886
953.121	5877
953.349	5807
953.578	5787
953.806	5696
954.035	5691
954.263	5701
954.491	5644
954.719	5600
954.948	5582
955.176	5519
955.404	5465
955.632	5572
955.86	5491
956.088	5467
956.316	5492
956.544	5474
956.772	5350
956.999	5376
957.227	5405
957.455	5269
957.683	5256
957.91	5252
958.138	5143
958.365	5170
958.593	5146
958.82	5085
959.048	5154
959.275	5126
959.502	5076
959.73	5084
959.957	5100
960.184	5068
960.411	5016
960.638	5118
960.865	5012
961.092	5023
961.319	4949
961.546	5020
961.773	5049
962	4912
962.227	4994
962.454	4933
962.68	4853
962.907	4925
963.134	4849
963.36	4829
963.587	4822
963.813	4703
964.04	4742
964.266	4702
964.493	4746
964.719	4696
964.945	4697
965.171	4620
965.398	4628
965.624	4633
965.85	4546
966.076	4513
966.302	4531
966.528	4453
966.754	4484
966.98	4438
967.206	4507
967.431	4394
967.657	4449
967.883	4400
968.109	4409
968.334	4362
968.56	4328
968.785	4305
969.011	4283
969.236	4331
969.462	4285
969.687	4239
969.912	4270
970.138	4321
970.363	4197
970.588	4221
970.813	4209
971.038	4151
971.263	4153
971.488	4163
971.713	4165
971.938	4167
972.163	4104
972.388	4112
972.613	4030
972.838	4034
973.062	4040
973.287	4015
973.512	3922
973.736	3935
973.961	3896
974.185	3905
974.41	3952
974.634	3793
974.858	3822
975.083	3816
975.307	3803
975.531	3775
975.755	3731
975.98	3691
976.204	3647
976.428	3653
976.652	3654
976.876	3590
977.1	3625
977.324	3562
977.547	3623
977.771	3591
977.995	3563
978.219	3489
978.442	3603
978.666	3538
978.89	3544
979.113	3516
979.337	3528
979.56	3447
979.783	3536
980.007	3395
980.23	3432
980.453	3382
980.677	3427
980.9	3384
981.123	3291
981.346	3403
981.569	3366
981.792	3359
982.015	3316
982.238	3256
982.461	3218
982.684	3250
982.907	3189
983.129	3193
983.352	3200
983.575	3207
983.797	3173
984.02	3114
984.242	3139
984.465	3115
984.687	3128
984.91	3140
985.132	3084
985.354	3089
985.577	3067
985.799	3065
986.021	2978
986.243	3002
986.465	2981
986.687	3045
986.909	3087
987.131	2966
987.353	2939
987.575	2989
987.797	2925
988.019	2859
988.241	2912
988.462	2879
988.684	2886
988.906	2969
989.127	2930
989.349	2860
989.57	2884
989.792	2939
990.013	2883
990.234	2880
990.456	2887
990.677	2833
990.898	2778
991.119	2795
991.341	2790
991.562	2750
991.783	2765
992.004	2748
992.225	2664
992.446	2737
992.667	2631
992.887	2684
993.108	2565
993.329	2674
993.55	2625
993.77	2547
993.991	2541
994.212	2626
994.432	2605
994.653	2559
994.873	2561
995.093	2456
995.314	2517
995.534	2501
995.754	2583
995.975	2590
996.195	2465
996.415	2481
996.635	2449
996.855	2484
997.075	2463
997.295	2457
997.515	2433
997.735	2469
997.955	2434
998.174	2410
998.394	2408
998.614	2449
998.834	2380
999.053	2468
999.273	2427
999.492	2472
999.712	2352
999.931	2339
1000.151	2374
1000.37	2366
1000.589	2423
1000.809	2302
1001.028	2422
1001.247	2331
1001.466	2210
1001.685	2353
1001.904	2311
1002.123	2283
1002.342	2253
1002.561	2219
1002.78	2228
1002.999	2291
1003.218	2188
1003.436	2195
1003.655	2225
1003.874	2178
1004.092	2182
1004.311	2223
1004.53	2167
1004.748	2273
1004.966	2148
1005.185	2218
1005.403	2172
1005.622	2183
1005.84	2237
1006.058	2123
1006.276	2148
1006.494	2639
1006.712	2107
1006.931	2209
1007.149	2093
1007.367	2117
1007.584	2150
1007.802	2200
1008.02	2119
1008.238	2238
1008.456	2227
1008.673	2074
1008.891	2179
1009.109	2172
1009.326	2219
1009.544	2317
1009.761	2261
1009.979	2351
1010.196	2403
1010.413	2560
1010.631	2618
1010.848	2648
1011.065	2639
1011.282	2633
1011.5	2561
1011.717	2689
1011.934	2597
1012.151	2613
1012.368	2566
1012.585	2527
1012.801	2606
1013.018	2566
1013.235	2511
1013.452	2544
1013.669	2583
1013.885	2550
1014.102	2597
1014.318	2564
1014.535	2515
1014.751	2556
1014.968	2521
1015.184	2571
1015.401	2438
1015.617	2447
1015.833	2376
1016.049	2413
1016.266	2326
1016.482	2359
1016.698	2276
1016.914	2318
1017.13	2237
1017.346	2249
1017.562	2297
1017.778	2241
1017.993	2169
1018.209	2203
1018.425	2223
1018.641	2222
1018.856	2159
1019.072	2219
1019.288	2249
1019.503	2180
1019.719	2097
1019.934	2096
1020.149	2150
1020.365	2095
1020.58	2041
1020.795	2065
1021.011	1984
1021.226	1974
1021.441	1980
1021.656	1859
1021.871	1796
1022.086	1781
1022.301	1770
1022.516	1730
1022.731	1750
1022.946	1665
1023.16	1687
1023.375	1617
1023.59	1603
1023.804	1548
1024.019	1625
1024.234	1492
1024.448	1516
1024.663	1427
1024.877	1435
1025.092	1458
1025.306	1415
1025.52	1339
1025.734	1385
1025.949	1307
1026.163	1271
1026.377	1204
1026.591	1237
1026.805	1166
1027.019	1154
1027.233	1129
1027.447	1069
1027.661	1137
1027.875	1078
1028.088	1085
1028.302	1023
1028.516	1002
1028.73	1001
1028.943	968
1029.157	899
1029.37	845
1029.584	-2
1029.797	-2
1030.011	-1
1030.224	-4
