Data from QEP037381__159__15-23-00-385.txt Node

Date: Wed Dec 21 15:23:00 EST 2022
User: dcclab
Spectrometer: QEP03738
Trigger mode: 4
Integration Time (sec): 1.000000E1
Scans to average: 1
Electric dark correction enabled: true
Nonlinearity correction enabled: false
Boxcar width: 0
XAxis mode: Wavelengths
Number of Pixels in Spectrum: 1044
>>>>>Begin Spectral Data<<<<<
784.041	12
784.3	1
784.558	-4
784.817	-3
785.075	90882
785.334	15752
785.592	7399
785.851	5086
786.109	3865
786.368	3043
786.626	2452
786.884	2018
787.143	1689
787.401	1433
787.659	1299
787.917	1120
788.175	1039
788.433	916
788.691	820
788.949	775
789.207	744
789.465	628
789.723	623
789.98	571
790.238	595
790.496	548
790.753	529
791.011	586
791.268	517
791.526	497
791.783	513
792.041	493
792.298	425
792.556	507
792.813	470
793.07	450
793.327	437
793.584	514
793.841	430
794.099	457
794.356	513
794.613	404
794.869	457
795.126	421
795.383	395
795.64	427
795.897	377
796.153	434
796.41	421
796.667	414
796.923	408
797.18	398
797.436	456
797.693	400
797.949	453
798.206	479
798.462	399
798.718	464
798.974	428
799.231	467
799.487	439
799.743	467
799.999	488
800.255	484
800.511	480
800.767	523
801.023	501
801.279	529
801.534	573
801.79	617
802.046	635
802.302	772
802.557	854
802.813	1071
803.068	1301
803.324	1804
803.579	2404
803.835	3341
804.09	4511
804.345	5846
804.601	7411
804.856	8843
805.111	10205
805.366	11193
805.621	12035
805.876	12497
806.131	12808
806.386	13035
806.641	13242
806.896	13465
807.151	13741
807.406	13942
807.661	14200
807.915	14322
808.17	14619
808.425	14634
808.679	14833
808.934	14961
809.188	15047
809.443	15209
809.697	15395
809.951	15548
810.206	15566
810.46	15761
810.714	15868
810.968	16124
811.223	16151
811.477	16259
811.731	16498
811.985	16450
812.239	16472
812.493	16576
812.747	16581
813	16581
813.254	16699
813.508	16864
813.762	16876
814.015	16842
814.269	16915
814.522	17094
814.776	17354
815.03	17481
815.283	17807
815.536	18009
815.79	18330
816.043	18519
816.296	18828
816.55	19018
816.803	19113
817.056	19419
817.309	19620
817.562	19775
817.815	20047
818.068	20052
818.321	20294
818.574	20443
818.827	20643
819.079	20859
819.332	21395
819.585	21727
819.838	21859
820.09	21993
820.343	21991
820.595	22025
820.848	22268
821.1	22455
821.353	22439
821.605	22344
821.857	22305
822.11	22118
822.362	22189
822.614	22097
822.866	22168
823.118	22083
823.37	22419
823.622	22355
823.874	22570
824.126	22517
824.378	22498
824.63	22569
824.882	22535
825.134	22493
825.385	22561
825.637	22530
825.888	22252
826.14	22347
826.392	22365
826.643	22124
826.895	22091
827.146	21915
827.397	21804
827.649	21997
827.9	21817
828.151	21887
828.402	21951
828.653	22130
828.905	22139
829.156	22191
829.407	22171
829.658	22337
829.909	22552
830.159	22619
830.41	22540
830.661	22233
830.912	21968
831.162	22009
831.413	21974
831.664	22019
831.914	21964
832.165	22017
832.415	21966
832.666	21887
832.916	22108
833.167	22068
833.417	22071
833.667	21938
833.917	21765
834.168	21771
834.418	21692
834.668	21621
834.918	21552
835.168	21572
835.418	21341
835.668	21450
835.918	21333
836.167	21208
836.417	21113
836.667	21134
836.917	21203
837.166	21228
837.416	21259
837.666	21329
837.915	21241
838.165	21294
838.414	21117
838.663	21188
838.913	21159
839.162	21206
839.411	21248
839.661	21117
839.91	21074
840.159	21091
840.408	21225
840.657	21078
840.906	21178
841.155	21195
841.404	21142
841.653	21111
841.902	21204
842.15	21372
842.399	21356
842.648	21404
842.897	21324
843.145	21131
843.394	20995
843.642	20893
843.891	20699
844.139	20595
844.388	20340
844.636	20239
844.884	20364
845.133	20339
845.381	20314
845.629	20406
845.877	20227
846.125	20266
846.373	20254
846.621	20180
846.869	20156
847.117	19911
847.365	19903
847.613	19834
847.861	19966
848.108	19923
848.356	19844
848.604	19787
848.851	19805
849.099	19840
849.346	19827
849.594	19940
849.841	20004
850.089	20050
850.336	20098
850.583	20117
850.831	19991
851.078	19908
851.325	19919
851.572	20032
851.819	19880
852.066	19528
852.313	19160
852.56	19049
852.807	19030
853.054	18877
853.301	19027
853.548	19031
853.794	19143
854.041	19099
854.288	19159
854.534	19533
854.781	19469
855.028	19360
855.274	19559
855.52	19531
855.767	19619
856.013	19869
856.26	19969
856.506	19430
856.752	19341
856.998	19189
857.244	19280
857.49	19515
857.736	19552
857.982	19619
858.228	19403
858.474	19140
858.72	18993
858.966	18787
859.212	18523
859.458	18304
859.703	18218
859.949	17947
860.195	17937
860.44	17789
860.686	17931
860.931	17952
861.177	17712
861.422	17531
861.667	17427
861.913	17314
862.158	17371
862.403	17348
862.648	17408
862.893	17407
863.138	17355
863.384	17235
863.629	17250
863.873	17250
864.118	17250
864.363	17195
864.608	17043
864.853	17061
865.098	16833
865.342	16851
865.587	16758
865.832	16856
866.076	16789
866.321	16589
866.565	16690
866.81	16636
867.054	16526
867.298	16618
867.543	16512
867.787	16483
868.031	16541
868.275	16459
868.519	16469
868.764	16482
869.008	16402
869.252	16460
869.496	16399
869.739	16496
869.983	16518
870.227	16563
870.471	16595
870.715	16710
870.958	16760
871.202	16807
871.446	16912
871.689	16876
871.933	16876
872.176	16869
872.42	16833
872.663	16910
872.906	16987
873.15	17174
873.393	17294
873.636	17368
873.879	17196
874.122	16834
874.366	16522
874.609	16322
874.852	15968
875.095	15832
875.337	15686
875.58	15461
875.823	15495
876.066	15534
876.309	15421
876.551	15249
876.794	15173
877.037	15145
877.279	15126
877.522	15121
877.764	15045
878.007	14987
878.249	15024
878.491	14863
878.734	14815
878.976	14741
879.218	14719
879.46	14644
879.702	14503
879.945	14319
880.187	14129
880.429	14152
880.671	13974
880.912	14005
881.154	14006
881.396	13872
881.638	13902
881.88	13938
882.121	13886
882.363	13816
882.605	13994
882.846	13976
883.088	14090
883.329	14169
883.571	14432
883.812	15003
884.053	15766
884.295	16495
884.536	16936
884.777	16728
885.018	16410
885.259	16172
885.5	15858
885.742	16095
885.982	15705
886.223	15528
886.464	15288
886.705	14954
886.946	14694
887.187	14198
887.428	13950
887.668	13530
887.909	13246
888.15	12879
888.39	12837
888.631	12760
888.871	12595
889.111	12534
889.352	12356
889.592	12176
889.833	12065
890.073	11997
890.313	11973
890.553	11760
890.793	11755
891.033	11761
891.273	11633
891.513	11596
891.753	11608
891.993	11574
892.233	11596
892.473	11709
892.713	11644
892.952	11630
893.192	11626
893.432	11664
893.671	11761
893.911	11601
894.15	11523
894.39	11335
894.629	11397
894.869	11322
895.108	11182
895.347	11127
895.587	11204
895.826	11117
896.065	11110
896.304	11123
896.543	11061
896.782	10956
897.021	10935
897.26	10932
897.499	11044
897.738	10961
897.977	10874
898.216	10792
898.454	10679
898.693	10584
898.932	10709
899.17	10735
899.409	10567
899.647	10565
899.886	10526
900.124	10654
900.363	10633
900.601	10760
900.839	10748
901.078	10843
901.316	10979
901.554	11113
901.792	11216
902.03	11248
902.268	11271
902.506	11226
902.744	11123
902.982	11011
903.22	10841
903.458	10575
903.695	10360
903.933	10214
904.171	9902
904.409	9726
904.646	9658
904.884	9535
905.121	9422
905.359	9184
905.596	9185
905.833	9049
906.071	9056
906.308	9022
906.545	8983
906.783	8858
907.02	8892
907.257	8873
907.494	8890
907.731	8818
907.968	8743
908.205	8729
908.442	8703
908.679	8690
908.915	8579
909.152	8551
909.389	8416
909.626	8434
909.862	8298
910.099	8308
910.335	8300
910.572	8079
910.808	8163
911.045	8116
911.281	8120
911.518	8072
911.754	8014
911.99	7971
912.226	7942
912.463	7875
912.699	7794
912.935	7739
913.171	7592
913.407	7607
913.643	7613
913.879	7521
914.114	7484
914.35	7390
914.586	7268
914.822	7201
915.057	7298
915.293	7166
915.529	7066
915.764	7214
916	7107
916.235	7141
916.471	7101
916.706	6984
916.941	7022
917.177	7003
917.412	6995
917.647	7034
917.882	6952
918.117	7032
918.352	7009
918.588	6967
918.823	6848
919.057	6800
919.292	6676
919.527	6713
919.762	6589
919.997	6668
920.232	6546
920.466	6493
920.701	6381
920.935	6396
921.17	6311
921.405	6283
921.639	6317
921.873	6274
922.108	6275
922.342	6261
922.576	6210
922.811	6170
923.045	6179
923.279	6153
923.513	6013
923.747	6030
923.981	6023
924.215	5988
924.449	5975
924.683	5889
924.917	5840
925.151	5851
925.385	5942
925.618	5828
925.852	5840
926.086	5724
926.319	5783
926.553	5829
926.786	5803
927.02	5736
927.253	5757
927.486	5751
927.72	5669
927.953	5747
928.186	5667
928.42	5682
928.653	5578
928.886	5589
929.119	5586
929.352	5590
929.585	5566
929.818	5482
930.051	5506
930.284	5431
930.516	5281
930.749	5309
930.982	5357
931.215	5336
931.447	5210
931.68	5270
931.912	5231
932.145	5212
932.377	5250
932.61	5389
932.842	5172
933.074	5238
933.307	5173
933.539	5252
933.771	5234
934.003	5135
934.236	5240
934.468	5256
934.7	5127
934.932	5179
935.164	5090
935.395	5045
935.627	5126
935.859	5149
936.091	5043
936.323	5098
936.554	5062
936.786	5054
937.017	4935
937.249	5009
937.481	4942
937.712	4980
937.943	4973
938.175	4971
938.406	4871
938.637	4956
938.869	4881
939.1	4976
939.331	4911
939.562	4897
939.793	4893
940.024	4889
940.255	4860
940.486	4817
940.717	4793
940.948	4787
941.179	4713
941.409	4772
941.64	4710
941.871	4698
942.102	4700
942.332	4699
942.563	4754
942.793	4752
943.024	4691
943.254	4726
943.484	4731
943.715	4702
943.945	4674
944.175	4625
944.405	4622
944.636	4654
944.866	4641
945.096	4690
945.326	4611
945.556	4655
945.786	4638
946.016	4579
946.245	4518
946.475	4504
946.705	4510
946.935	4499
947.164	4484
947.394	4416
947.624	4436
947.853	4413
948.083	4428
948.312	4336
948.542	4325
948.771	4262
949	4326
949.23	4297
949.459	4270
949.688	4356
949.917	4298
950.146	4284
950.375	4337
950.604	4219
950.833	4326
951.062	4327
951.291	4280
951.52	4190
951.749	4215
951.978	4173
952.206	4197
952.435	4156
952.664	4172
952.892	4200
953.121	4125
953.349	4179
953.578	4134
953.806	4103
954.035	4035
954.263	4066
954.491	4012
954.719	4035
954.948	3964
955.176	3979
955.404	3910
955.632	3955
955.86	3973
956.088	3909
956.316	3927
956.544	3951
956.772	3826
956.999	3872
957.227	3908
957.455	3828
957.683	3809
957.91	3742
958.138	3759
958.365	3751
958.593	3718
958.82	3633
959.048	3708
959.275	3663
959.502	3665
959.73	3658
959.957	3720
960.184	3696
960.411	3642
960.638	3700
960.865	3620
961.092	3652
961.319	3565
961.546	3642
961.773	3676
962	3571
962.227	3636
962.454	3559
962.68	3577
962.907	3575
963.134	3522
963.36	3527
963.587	3563
963.813	3494
964.04	3515
964.266	3434
964.493	3527
964.719	3448
964.945	3458
965.171	3363
965.398	3418
965.624	3387
965.85	3306
966.076	3356
966.302	3360
966.528	3339
966.754	3304
966.98	3304
967.206	3293
967.431	3249
967.657	3295
967.883	3293
968.109	3277
968.334	3181
968.56	3179
968.785	3162
969.011	3186
969.236	3215
969.462	3178
969.687	3163
969.912	3227
970.138	3181
970.363	3104
970.588	3128
970.813	3121
971.038	3068
971.263	3118
971.488	3125
971.713	3138
971.938	3072
972.163	2985
972.388	3027
972.613	2999
972.838	3025
973.062	3030
973.287	3000
973.512	2909
973.736	3003
973.961	2918
974.185	2924
974.41	2919
974.634	2821
974.858	2828
975.083	2898
975.307	2891
975.531	2815
975.755	2758
975.98	2756
976.204	2697
976.428	2751
976.652	2694
976.876	2702
977.1	2710
977.324	2682
977.547	2733
977.771	2748
977.995	2683
978.219	2648
978.442	2758
978.666	2639
978.89	2674
979.113	2640
979.337	2662
979.56	2599
979.783	2671
980.007	2594
980.23	2620
980.453	2581
980.677	2610
980.9	2581
981.123	2473
981.346	2576
981.569	2530
981.792	2593
982.015	2508
982.238	2461
982.461	2515
982.684	2475
982.907	2439
983.129	2426
983.352	2483
983.575	2451
983.797	2458
984.02	2395
984.242	2406
984.465	2420
984.687	2393
984.91	2408
985.132	2449
985.354	2409
985.577	2402
985.799	2385
986.021	2304
986.243	2311
986.465	2358
986.687	2361
986.909	2398
987.131	2377
987.353	2295
987.575	2349
987.797	2307
988.019	2282
988.241	2282
988.462	2260
988.684	2332
988.906	2311
989.127	2375
989.349	2216
989.57	2256
989.792	2303
990.013	2300
990.234	2340
990.456	2340
990.677	2305
990.898	2241
991.119	2255
991.341	2242
991.562	2279
991.783	2239
992.004	2163
992.225	2126
992.446	2231
992.667	2130
992.887	2202
993.108	2086
993.329	2207
993.55	2169
993.77	2085
993.991	2077
994.212	2154
994.432	2103
994.653	2115
994.873	2111
995.093	1984
995.314	2025
995.534	2132
995.754	2165
995.975	2164
996.195	2058
996.415	2125
996.635	2088
996.855	2126
997.075	2114
997.295	2087
997.515	2096
997.735	2139
997.955	2123
998.174	2128
998.394	2128
998.614	2135
998.834	2081
999.053	2139
999.273	2090
999.492	2149
999.712	2031
999.931	1999
1000.151	2033
1000.37	1997
1000.589	2019
1000.809	1943
1001.028	2060
1001.247	2004
1001.466	1869
1001.685	2016
1001.904	1947
1002.123	1917
1002.342	1925
1002.561	1882
1002.78	1890
1002.999	1948
1003.218	1891
1003.436	1853
1003.655	1901
1003.874	1840
1004.092	1870
1004.311	1921
1004.53	1840
1004.748	1957
1004.966	1867
1005.185	1943
1005.403	1913
1005.622	1904
1005.84	1975
1006.058	1908
1006.276	1936
1006.494	2448
1006.712	1918
1006.931	1990
1007.149	1909
1007.367	1954
1007.584	2032
1007.802	2061
1008.02	2056
1008.238	2160
1008.456	2200
1008.673	2109
1008.891	2265
1009.109	2288
1009.326	2407
1009.544	2566
1009.761	2601
1009.979	2816
1010.196	2920
1010.413	3195
1010.631	3411
1010.848	3569
1011.065	3697
1011.282	3622
1011.5	3553
1011.717	3612
1011.934	3521
1012.151	3560
1012.368	3508
1012.585	3447
1012.801	3485
1013.018	3515
1013.235	3465
1013.452	3510
1013.669	3554
1013.885	3621
1014.102	3644
1014.318	3627
1014.535	3605
1014.751	3624
1014.968	3581
1015.184	3590
1015.401	3444
1015.617	3469
1015.833	3357
1016.049	3316
1016.266	3288
1016.482	3234
1016.698	3120
1016.914	3164
1017.13	3035
1017.346	3075
1017.562	3074
1017.778	2969
1017.993	2938
1018.209	2995
1018.425	2951
1018.641	2931
1018.856	2889
1019.072	2907
1019.288	2949
1019.503	2891
1019.719	2782
1019.934	2767
1020.149	2840
1020.365	2735
1020.58	2605
1020.795	2571
1021.011	2510
1021.226	2405
1021.441	2340
1021.656	2227
1021.871	2159
1022.086	2113
1022.301	2062
1022.516	2081
1022.731	2073
1022.946	1942
1023.16	1894
1023.375	1836
1023.59	1786
1023.804	1731
1024.019	1782
1024.234	1603
1024.448	1624
1024.663	1526
1024.877	1515
1025.092	1478
1025.306	1467
1025.52	1361
1025.734	1410
1025.949	1314
1026.163	1253
1026.377	1189
1026.591	1244
1026.805	1158
1027.019	1123
1027.233	1080
1027.447	1059
1027.661	1140
1027.875	1031
1028.088	1040
1028.302	959
1028.516	928
1028.73	935
1028.943	894
1029.157	825
1029.37	772
1029.584	-3
1029.797	0
1030.011	0
1030.224	-3
