Data from QEP037381__253__11-02-46-588.txt Node

Date: Wed Dec 21 11:02:46 EST 2022
User: dcclab
Spectrometer: QEP03738
Trigger mode: 4
Integration Time (sec): 1.000000E1
Scans to average: 1
Electric dark correction enabled: true
Nonlinearity correction enabled: false
Boxcar width: 0
XAxis mode: Wavelengths
Number of Pixels in Spectrum: 1044
>>>>>Begin Spectral Data<<<<<
784.041	14
784.3	4
784.558	-6
784.817	-4
785.075	100343
785.334	16858
785.592	7688
785.851	5390
786.109	4033
786.368	3099
786.626	2528
786.884	2097
787.143	1777
787.401	1452
787.659	1307
787.917	1143
788.175	1053
788.433	896
788.691	805
788.949	757
789.207	708
789.465	635
789.723	603
789.98	548
790.238	590
790.496	550
790.753	513
791.011	563
791.268	507
791.526	470
791.783	492
792.041	484
792.298	404
792.556	475
792.813	446
793.07	430
793.327	420
793.584	496
793.841	405
794.099	435
794.356	482
794.613	394
794.869	422
795.126	388
795.383	371
795.64	385
795.897	340
796.153	401
796.41	388
796.667	367
796.923	370
797.18	382
797.436	399
797.693	347
797.949	400
798.206	446
798.462	333
798.718	417
798.974	372
799.231	410
799.487	388
799.743	401
799.999	412
800.255	406
800.511	373
800.767	411
801.023	387
801.279	406
801.534	411
801.79	425
802.046	406
802.302	471
802.557	465
802.813	507
803.068	484
803.324	611
803.579	687
803.835	835
804.09	1107
804.345	1348
804.601	1618
804.856	1944
805.111	2208
805.366	2395
805.621	2551
805.876	2641
806.131	2683
806.386	2717
806.641	2652
806.896	2736
807.151	2889
807.406	2869
807.661	2922
807.915	2941
808.17	3000
808.425	3055
808.679	3012
808.934	3134
809.188	3125
809.443	3170
809.697	3248
809.951	3218
810.206	3207
810.46	3277
810.714	3316
810.968	3388
811.223	3332
811.477	3354
811.731	3400
811.985	3373
812.239	3317
812.493	3389
812.747	3471
813	3420
813.254	3457
813.508	3530
813.762	3459
814.015	3464
814.269	3510
814.522	3600
814.776	3610
815.03	3653
815.283	3699
815.536	3753
815.79	3835
816.043	3900
816.296	3933
816.55	3926
816.803	3995
817.056	4058
817.309	4074
817.562	4141
817.815	4192
818.068	4181
818.321	4162
818.574	4250
818.827	4383
819.079	4364
819.332	4554
819.585	4545
819.838	4614
820.09	4565
820.343	4687
820.595	4641
820.848	4681
821.1	4663
821.353	4693
821.605	4679
821.857	4743
822.11	4580
822.362	4607
822.614	4633
822.866	4681
823.118	4611
823.37	4741
823.622	4761
823.874	4751
824.126	4834
824.378	4761
824.63	4810
824.882	4788
825.134	4758
825.385	4744
825.637	4717
825.888	4661
826.14	4698
826.392	4616
826.643	4565
826.895	4645
827.146	4549
827.397	4570
827.649	4554
827.9	4532
828.151	4526
828.402	4501
828.653	4617
828.905	4585
829.156	4627
829.407	4631
829.658	4570
829.909	4661
830.159	4662
830.41	4655
830.661	4584
830.912	4540
831.162	4579
831.413	4579
831.664	4586
831.914	4531
832.165	4556
832.415	4606
832.666	4569
832.916	4590
833.167	4518
833.417	4580
833.667	4589
833.917	4532
834.168	4609
834.418	4607
834.668	4581
834.918	4506
835.168	4479
835.418	4478
835.668	4472
835.918	4518
836.167	4523
836.417	4406
836.667	4468
836.917	4495
837.166	4383
837.416	4503
837.666	4425
837.915	4394
838.165	4380
838.414	4386
838.663	4221
838.913	4395
839.162	4357
839.411	4472
839.661	4357
839.91	4375
840.159	4362
840.408	4394
840.657	4384
840.906	4432
841.155	4453
841.404	4363
841.653	4405
841.902	4382
842.15	4405
842.399	4435
842.648	4402
842.897	4396
843.145	4327
843.394	4259
843.642	4278
843.891	4315
844.139	4269
844.388	4204
844.636	4152
844.884	4163
845.133	4209
845.381	4233
845.629	4221
845.877	4188
846.125	4183
846.373	4188
846.621	4137
846.869	4208
847.117	4112
847.365	4139
847.613	4103
847.861	4147
848.108	4133
848.356	4167
848.604	4097
848.851	4118
849.099	4167
849.346	4121
849.594	4205
849.841	4248
850.089	4217
850.336	4293
850.583	4330
850.831	4360
851.078	4361
851.325	4371
851.572	4416
851.819	4362
852.066	4095
852.313	4016
852.56	3954
852.807	3899
853.054	3930
853.301	3939
853.548	4004
853.794	4105
854.041	4071
854.288	4023
854.534	4163
854.781	4083
855.028	4084
855.274	4142
855.52	4028
855.767	4024
856.013	4089
856.26	4369
856.506	4038
856.752	4082
856.998	3976
857.244	4014
857.49	4042
857.736	4071
857.982	4015
858.228	4071
858.474	3921
858.72	3989
858.966	3883
859.212	3883
859.458	3839
859.703	3834
859.949	3745
860.195	3726
860.44	3750
860.686	3726
860.931	3731
861.177	3690
861.422	3756
861.667	3637
861.913	3602
862.158	3632
862.403	3687
862.648	3724
862.893	3733
863.138	3684
863.384	3640
863.629	3681
863.873	3664
864.118	3667
864.363	3608
864.608	3665
864.853	3683
865.098	3652
865.342	3637
865.587	3579
865.832	3661
866.076	3668
866.321	3600
866.565	3606
866.81	3522
867.054	3564
867.298	3572
867.543	3502
867.787	3557
868.031	3572
868.275	3535
868.519	3522
868.764	3546
869.008	3548
869.252	3583
869.496	3542
869.739	3555
869.983	3560
870.227	3588
870.471	3509
870.715	3613
870.958	3614
871.202	3563
871.446	3620
871.689	3578
871.933	3613
872.176	3592
872.42	3609
872.663	3611
872.906	3616
873.15	3560
873.393	3608
873.636	3691
873.879	3636
874.122	3642
874.366	3481
874.609	3463
874.852	3413
875.095	3410
875.337	3380
875.58	3305
875.823	3377
876.066	3384
876.309	3442
876.551	3345
876.794	3301
877.037	3336
877.279	3237
877.522	3281
877.764	3312
878.007	3278
878.249	3279
878.491	3217
878.734	3316
878.976	3270
879.218	3157
879.46	3249
879.702	3185
879.945	3198
880.187	3085
880.429	3070
880.671	3126
880.912	3097
881.154	3096
881.396	3056
881.638	3083
881.88	3081
882.121	3055
882.363	3082
882.605	3078
882.846	3124
883.088	3157
883.329	3094
883.571	3072
883.812	3226
884.053	3314
884.295	3420
884.536	3594
884.777	3525
885.018	3470
885.259	3464
885.5	3385
885.742	3602
885.982	3367
886.223	3281
886.464	3267
886.705	3164
886.946	3197
887.187	3052
887.428	3045
887.668	2976
887.909	2920
888.15	2839
888.39	2919
888.631	2878
888.871	2884
889.111	2800
889.352	2829
889.592	2761
889.833	2793
890.073	2744
890.313	2767
890.553	2663
890.793	2676
891.033	2693
891.273	2635
891.513	2666
891.753	2747
891.993	2654
892.233	2683
892.473	2754
892.713	2694
892.952	2669
893.192	2716
893.432	2696
893.671	2796
893.911	2718
894.15	2712
894.39	2589
894.629	2655
894.869	2668
895.108	2681
895.347	2605
895.587	2668
895.826	2640
896.065	2606
896.304	2682
896.543	2715
896.782	2625
897.021	2671
897.26	2658
897.499	2749
897.738	2759
897.977	2664
898.216	2633
898.454	2665
898.693	2612
898.932	2676
899.17	2595
899.409	2613
899.647	2642
899.886	2611
900.124	2652
900.363	2618
900.601	2664
900.839	2667
901.078	2684
901.316	2697
901.554	2715
901.792	2772
902.03	2742
902.268	2765
902.506	2757
902.744	2727
902.982	2749
903.22	2605
903.458	2574
903.695	2581
903.933	2555
904.171	2400
904.409	2396
904.646	2433
904.884	2314
905.121	2348
905.359	2286
905.596	2299
905.833	2188
906.071	2228
906.308	2258
906.545	2227
906.783	2168
907.02	2188
907.257	2142
907.494	2139
907.731	2169
907.968	2181
908.205	2127
908.442	2126
908.679	2112
908.915	2099
909.152	2074
909.389	1995
909.626	2021
909.862	1981
910.099	2012
910.335	2060
910.572	1969
910.808	1992
911.045	1969
911.281	1948
911.518	2008
911.754	1944
911.99	1962
912.226	1928
912.463	1905
912.699	1933
912.935	1896
913.171	1883
913.407	1803
913.643	1910
913.879	1881
914.114	1881
914.35	1811
914.586	1835
914.822	1788
915.057	1861
915.293	1735
915.529	1772
915.764	1808
916	1805
916.235	1766
916.471	1765
916.706	1733
916.941	1773
917.177	1753
917.412	1779
917.647	1766
917.882	1758
918.117	1816
918.352	1779
918.588	1816
918.823	1763
919.057	1731
919.292	1656
919.527	1760
919.762	1667
919.997	1736
920.232	1659
920.466	1691
920.701	1595
920.935	1651
921.17	1616
921.405	1594
921.639	1632
921.873	1649
922.108	1625
922.342	1655
922.576	1571
922.811	1588
923.045	1623
923.279	1618
923.513	1518
923.747	1621
923.981	1601
924.215	1568
924.449	1537
924.683	1506
924.917	1536
925.151	1545
925.385	1576
925.618	1533
925.852	1557
926.086	1468
926.319	1551
926.553	1531
926.786	1544
927.02	1526
927.253	1567
927.486	1541
927.72	1488
927.953	1564
928.186	1521
928.42	1573
928.653	1487
928.886	1504
929.119	1519
929.352	1532
929.585	1524
929.818	1452
930.051	1538
930.284	1503
930.516	1411
930.749	1442
930.982	1504
931.215	1476
931.447	1426
931.68	1452
931.912	1402
932.145	1431
932.377	1464
932.61	1572
932.842	1384
933.074	1450
933.307	1404
933.539	1497
933.771	1490
934.003	1407
934.236	1518
934.468	1537
934.7	1437
934.932	1454
935.164	1422
935.395	1422
935.627	1457
935.859	1454
936.091	1396
936.323	1469
936.554	1485
936.786	1434
937.017	1367
937.249	1446
937.481	1344
937.712	1432
937.943	1415
938.175	1412
938.406	1429
938.637	1504
938.869	1349
939.1	1424
939.331	1391
939.562	1422
939.793	1428
940.024	1435
940.255	1455
940.486	1413
940.717	1411
940.948	1394
941.179	1355
941.409	1369
941.64	1364
941.871	1399
942.102	1370
942.332	1387
942.563	1414
942.793	1405
943.024	1351
943.254	1384
943.484	1411
943.715	1428
943.945	1385
944.175	1328
944.405	1321
944.636	1319
944.866	1381
945.096	1396
945.326	1289
945.556	1396
945.786	1424
946.016	1352
946.245	1320
946.475	1334
946.705	1317
946.935	1362
947.164	1346
947.394	1300
947.624	1336
947.853	1357
948.083	1316
948.312	1286
948.542	1258
948.771	1242
949	1271
949.23	1281
949.459	1273
949.688	1343
949.917	1297
950.146	1315
950.375	1350
950.604	1244
950.833	1350
951.062	1334
951.291	1298
951.52	1274
951.749	1289
951.978	1257
952.206	1246
952.435	1240
952.664	1283
952.892	1308
953.121	1275
953.349	1284
953.578	1293
953.806	1269
954.035	1233
954.263	1273
954.491	1215
954.719	1254
954.948	1226
955.176	1234
955.404	1166
955.632	1262
955.86	1247
956.088	1225
956.316	1266
956.544	1284
956.772	1217
956.999	1204
957.227	1267
957.455	1198
957.683	1210
957.91	1199
958.138	1176
958.365	1192
958.593	1177
958.82	1130
959.048	1226
959.275	1177
959.502	1161
959.73	1173
959.957	1220
960.184	1229
960.411	1184
960.638	1271
960.865	1191
961.092	1208
961.319	1114
961.546	1219
961.773	1195
962	1187
962.227	1217
962.454	1190
962.68	1154
962.907	1181
963.134	1146
963.36	1178
963.587	1198
963.813	1134
964.04	1177
964.266	1146
964.493	1217
964.719	1189
964.945	1185
965.171	1073
965.398	1151
965.624	1177
965.85	1116
966.076	1099
966.302	1164
966.528	1134
966.754	1149
966.98	1163
967.206	1131
967.431	1085
967.657	1162
967.883	1167
968.109	1136
968.334	1080
968.56	1100
968.785	1097
969.011	1061
969.236	1130
969.462	1090
969.687	1091
969.912	1136
970.138	1151
970.363	1074
970.588	1102
970.813	1093
971.038	1076
971.263	1103
971.488	1103
971.713	1134
971.938	1120
972.163	1025
972.388	1054
972.613	1060
972.838	1069
973.062	1080
973.287	1061
973.512	986
973.736	1051
973.961	1050
974.185	1020
974.41	1070
974.634	1005
974.858	1019
975.083	1072
975.307	1069
975.531	1031
975.755	971
975.98	1012
976.204	940
976.428	954
976.652	959
976.876	943
977.1	986
977.324	961
977.547	1014
977.771	1012
977.995	978
978.219	937
978.442	1059
978.666	981
978.89	984
979.113	973
979.337	973
979.56	951
979.783	1058
980.007	924
980.23	949
980.453	935
980.677	990
980.9	993
981.123	875
981.346	968
981.569	993
981.792	1015
982.015	943
982.238	934
982.461	950
982.684	918
982.907	914
983.129	923
983.352	990
983.575	950
983.797	968
984.02	920
984.242	916
984.465	917
984.687	974
984.91	996
985.132	958
985.354	980
985.577	973
985.799	962
986.021	893
986.243	895
986.465	925
986.687	988
986.909	1037
987.131	979
987.353	913
987.575	954
987.797	921
988.019	870
988.241	939
988.462	892
988.684	956
988.906	977
989.127	1014
989.349	910
989.57	922
989.792	991
990.013	992
990.234	987
990.456	1005
990.677	1012
990.898	944
991.119	973
991.341	988
991.562	907
991.783	961
992.004	905
992.225	885
992.446	944
992.667	853
992.887	947
993.108	861
993.329	988
993.55	928
993.77	868
993.991	876
994.212	930
994.432	927
994.653	920
994.873	944
995.093	826
995.314	855
995.534	968
995.754	962
995.975	990
996.195	881
996.415	924
996.635	944
996.855	961
997.075	906
997.295	911
997.515	907
997.735	951
997.955	924
998.174	929
998.394	911
998.614	937
998.834	898
999.053	959
999.273	942
999.492	990
999.712	936
999.931	901
1000.151	953
1000.37	932
1000.589	1035
1000.809	912
1001.028	1049
1001.247	975
1001.466	898
1001.685	1037
1001.904	980
1002.123	965
1002.342	984
1002.561	933
1002.78	973
1002.999	1033
1003.218	980
1003.436	950
1003.655	990
1003.874	960
1004.092	972
1004.311	1037
1004.53	982
1004.748	1069
1004.966	992
1005.185	1036
1005.403	1014
1005.622	1012
1005.84	1107
1006.058	979
1006.276	1011
1006.494	1501
1006.712	998
1006.931	1078
1007.149	981
1007.367	1000
1007.584	1043
1007.802	1065
1008.02	1013
1008.238	1116
1008.456	1103
1008.673	988
1008.891	1083
1009.109	1042
1009.326	1104
1009.544	1182
1009.761	1106
1009.979	1200
1010.196	1199
1010.413	1299
1010.631	1303
1010.848	1341
1011.065	1357
1011.282	1302
1011.5	1242
1011.717	1354
1011.934	1290
1012.151	1348
1012.368	1324
1012.585	1254
1012.801	1300
1013.018	1281
1013.235	1262
1013.452	1292
1013.669	1312
1013.885	1286
1014.102	1322
1014.318	1275
1014.535	1265
1014.751	1283
1014.968	1286
1015.184	1331
1015.401	1256
1015.617	1260
1015.833	1236
1016.049	1238
1016.266	1222
1016.482	1240
1016.698	1178
1016.914	1211
1017.13	1175
1017.346	1151
1017.562	1256
1017.778	1177
1017.993	1145
1018.209	1204
1018.425	1175
1018.641	1164
1018.856	1154
1019.072	1184
1019.288	1198
1019.503	1174
1019.719	1102
1019.934	1123
1020.149	1196
1020.365	1133
1020.58	1083
1020.795	1136
1021.011	1098
1021.226	1061
1021.441	1108
1021.656	1014
1021.871	981
1022.086	962
1022.301	965
1022.516	954
1022.731	1014
1022.946	917
1023.16	911
1023.375	889
1023.59	898
1023.804	860
1024.019	958
1024.234	817
1024.448	881
1024.663	808
1024.877	821
1025.092	848
1025.306	859
1025.52	784
1025.734	854
1025.949	785
1026.163	754
1026.377	698
1026.591	763
1026.805	683
1027.019	699
1027.233	634
1027.447	617
1027.661	719
1027.875	671
1028.088	652
1028.302	597
1028.516	614
1028.73	624
1028.943	596
1029.157	547
1029.37	538
1029.584	-2
1029.797	-2
1030.011	-1
1030.224	-3
