Data from QEP037381__285__11-08-06-589.txt Node

Date: Wed Dec 21 11:08:06 EST 2022
User: dcclab
Spectrometer: QEP03738
Trigger mode: 4
Integration Time (sec): 1.000000E1
Scans to average: 1
Electric dark correction enabled: true
Nonlinearity correction enabled: false
Boxcar width: 0
XAxis mode: Wavelengths
Number of Pixels in Spectrum: 1044
>>>>>Begin Spectral Data<<<<<
784.041	13
784.3	1
784.558	-2
784.817	-5
785.075	102591
785.334	17081
785.592	7850
785.851	5363
786.109	4033
786.368	3130
786.626	2524
786.884	2083
787.143	1734
787.401	1421
787.659	1310
787.917	1108
788.175	1008
788.433	890
788.691	801
788.949	739
789.207	710
789.465	601
789.723	601
789.98	536
790.238	574
790.496	533
790.753	518
791.011	562
791.268	502
791.526	479
791.783	487
792.041	479
792.298	394
792.556	472
792.813	438
793.07	424
793.327	405
793.584	492
793.841	410
794.099	423
794.356	473
794.613	389
794.869	416
795.126	378
795.383	346
795.64	390
795.897	336
796.153	407
796.41	385
796.667	358
796.923	371
797.18	367
797.436	389
797.693	349
797.949	407
798.206	429
798.462	335
798.718	394
798.974	370
799.231	406
799.487	400
799.743	406
799.999	420
800.255	386
800.511	374
800.767	420
801.023	389
801.279	409
801.534	406
801.79	427
802.046	412
802.302	451
802.557	464
802.813	509
803.068	491
803.324	613
803.579	703
803.835	854
804.09	1116
804.345	1358
804.601	1638
804.856	1977
805.111	2275
805.366	2470
805.621	2630
805.876	2736
806.131	2790
806.386	2792
806.641	2789
806.896	2861
807.151	2984
807.406	2951
807.661	3046
807.915	3067
808.17	3132
808.425	3121
808.679	3166
808.934	3299
809.188	3255
809.443	3317
809.697	3362
809.951	3348
810.206	3395
810.46	3495
810.714	3498
810.968	3527
811.223	3486
811.477	3557
811.731	3572
811.985	3548
812.239	3544
812.493	3577
812.747	3642
813	3625
813.254	3661
813.508	3696
813.762	3607
814.015	3660
814.269	3733
814.522	3753
814.776	3834
815.03	3861
815.283	3921
815.536	3991
815.79	4062
816.043	4091
816.296	4148
816.55	4175
816.803	4245
817.056	4374
817.309	4326
817.562	4424
817.815	4495
818.068	4480
818.321	4550
818.574	4566
818.827	4658
819.079	4700
819.332	4821
819.585	4854
819.838	4963
820.09	4949
820.343	5071
820.595	4961
820.848	4996
821.1	5076
821.353	5054
821.605	5000
821.857	5097
822.11	4979
822.362	4975
822.614	4982
822.866	5008
823.118	5000
823.37	5111
823.622	5101
823.874	5106
824.126	5180
824.378	5144
824.63	5187
824.882	5250
825.134	5144
825.385	5204
825.637	5096
825.888	5068
826.14	5106
826.392	5047
826.643	4998
826.895	4999
827.146	4902
827.397	4915
827.649	5048
827.9	4890
828.151	4908
828.402	4879
828.653	4996
828.905	5005
829.156	4991
829.407	4948
829.658	5002
829.909	5050
830.159	5019
830.41	5078
830.661	5033
830.912	4962
831.162	4980
831.413	5033
831.664	5042
831.914	4985
832.165	4989
832.415	5002
832.666	5022
832.916	4963
833.167	4952
833.417	5067
833.667	4958
833.917	4978
834.168	5007
834.418	4992
834.668	5026
834.918	4908
835.168	4926
835.418	4858
835.668	4921
835.918	4909
836.167	4866
836.417	4771
836.667	4864
836.917	4875
837.166	4835
837.416	4868
837.666	4883
837.915	4825
838.165	4841
838.414	4770
838.663	4725
838.913	4801
839.162	4779
839.411	4828
839.661	4827
839.91	4787
840.159	4781
840.408	4842
840.657	4857
840.906	4867
841.155	4924
841.404	4807
841.653	4875
841.902	4819
842.15	4915
842.399	4866
842.648	4919
842.897	4860
843.145	4793
843.394	4785
843.642	4699
843.891	4763
844.139	4700
844.388	4634
844.636	4575
844.884	4603
845.133	4586
845.381	4620
845.629	4654
845.877	4604
846.125	4720
846.373	4675
846.621	4609
846.869	4637
847.117	4592
847.365	4600
847.613	4597
847.861	4579
848.108	4584
848.356	4583
848.604	4541
848.851	4594
849.099	4585
849.346	4578
849.594	4644
849.841	4696
850.089	4749
850.336	4750
850.583	4810
850.831	4830
851.078	4799
851.325	4812
851.572	4902
851.819	4831
852.066	4624
852.313	4509
852.56	4353
852.807	4382
853.054	4389
853.301	4402
853.548	4411
853.794	4539
854.041	4520
854.288	4513
854.534	4611
854.781	4569
855.028	4542
855.274	4592
855.52	4497
855.767	4518
856.013	4563
856.26	4820
856.506	4492
856.752	4518
856.998	4459
857.244	4480
857.49	4551
857.736	4536
857.982	4508
858.228	4550
858.474	4423
858.72	4430
858.966	4431
859.212	4305
859.458	4298
859.703	4244
859.949	4207
860.195	4208
860.44	4177
860.686	4138
860.931	4256
861.177	4094
861.422	4150
861.667	4069
861.913	4036
862.158	4101
862.403	4125
862.648	4165
862.893	4206
863.138	4127
863.384	4122
863.629	4090
863.873	4087
864.118	4105
864.363	4062
864.608	4102
864.853	4125
865.098	4069
865.342	4054
865.587	4001
865.832	4050
866.076	4045
866.321	4023
866.565	4007
866.81	3954
867.054	3982
867.298	3995
867.543	3944
867.787	4018
868.031	4007
868.275	3949
868.519	3993
868.764	4005
869.008	3991
869.252	4026
869.496	3999
869.739	4033
869.983	4057
870.227	4090
870.471	4040
870.715	4150
870.958	4118
871.202	4085
871.446	4097
871.689	4101
871.933	4102
872.176	4116
872.42	4063
872.663	4089
872.906	4085
873.15	4138
873.393	4048
873.636	4139
873.879	4111
874.122	4065
874.366	3992
874.609	3942
874.852	3851
875.095	3846
875.337	3870
875.58	3785
875.823	3848
876.066	3819
876.309	3887
876.551	3789
876.794	3714
877.037	3813
877.279	3705
877.522	3727
877.764	3735
878.007	3717
878.249	3698
878.491	3662
878.734	3722
878.976	3672
879.218	3616
879.46	3702
879.702	3649
879.945	3597
880.187	3530
880.429	3509
880.671	3499
880.912	3551
881.154	3544
881.396	3383
881.638	3479
881.88	3533
882.121	3449
882.363	3454
882.605	3573
882.846	3505
883.088	3525
883.329	3509
883.571	3541
883.812	3647
884.053	3758
884.295	3886
884.536	4087
884.777	4007
885.018	4037
885.259	3994
885.5	3882
885.742	4091
885.982	3900
886.223	3775
886.464	3759
886.705	3666
886.946	3677
887.187	3502
887.428	3523
887.668	3399
887.909	3341
888.15	3267
888.39	3320
888.631	3314
888.871	3232
889.111	3207
889.352	3193
889.592	3144
889.833	3092
890.073	3130
890.313	3187
890.553	3041
890.793	3076
891.033	3047
891.273	3029
891.513	3064
891.753	3109
891.993	3057
892.233	3061
892.473	3136
892.713	3084
892.952	3043
893.192	3069
893.432	3096
893.671	3179
893.911	3080
894.15	3067
894.39	3003
894.629	3032
894.869	3068
895.108	3018
895.347	2971
895.587	3011
895.826	2979
896.065	2972
896.304	3014
896.543	3048
896.782	2968
897.021	3041
897.26	3030
897.499	3073
897.738	3108
897.977	3075
898.216	3001
898.454	3060
898.693	2962
898.932	3015
899.17	2971
899.409	2953
899.647	2997
899.886	2980
900.124	3031
900.363	3007
900.601	3056
900.839	3085
901.078	3044
901.316	3068
901.554	3124
901.792	3169
902.03	3186
902.268	3230
902.506	3258
902.744	3138
902.982	3162
903.22	3042
903.458	2972
903.695	2932
903.933	2901
904.171	2815
904.409	2729
904.646	2773
904.884	2664
905.121	2666
905.359	2644
905.596	2611
905.833	2519
906.071	2531
906.308	2566
906.545	2520
906.783	2444
907.02	2519
907.257	2457
907.494	2437
907.731	2481
907.968	2462
908.205	2429
908.442	2390
908.679	2435
908.915	2400
909.152	2385
909.389	2311
909.626	2355
909.862	2332
910.099	2315
910.335	2364
910.572	2186
910.808	2280
911.045	2248
911.281	2229
911.518	2308
911.754	2231
911.99	2238
912.226	2212
912.463	2194
912.699	2171
912.935	2205
913.171	2177
913.407	2134
913.643	2182
913.879	2135
914.114	2132
914.35	2068
914.586	2057
914.822	2030
915.057	2120
915.293	2000
915.529	2015
915.764	2073
916	2080
916.235	2077
916.471	2047
916.706	1968
916.941	2051
917.177	2009
917.412	2044
917.647	2062
917.882	1997
918.117	2046
918.352	2009
918.588	2026
918.823	2000
919.057	2001
919.292	1918
919.527	2002
919.762	1950
919.997	1936
920.232	1891
920.466	1909
920.701	1821
920.935	1864
921.17	1855
921.405	1817
921.639	1881
921.873	1853
922.108	1872
922.342	1898
922.576	1826
922.811	1846
923.045	1862
923.279	1893
923.513	1762
923.747	1863
923.981	1841
924.215	1819
924.449	1779
924.683	1732
924.917	1755
925.151	1746
925.385	1806
925.618	1806
925.852	1789
926.086	1721
926.319	1773
926.553	1780
926.786	1770
927.02	1749
927.253	1845
927.486	1801
927.72	1701
927.953	1794
928.186	1738
928.42	1778
928.653	1720
928.886	1688
929.119	1753
929.352	1736
929.585	1733
929.818	1681
930.051	1749
930.284	1714
930.516	1645
930.749	1664
930.982	1728
931.215	1714
931.447	1629
931.68	1671
931.912	1618
932.145	1615
932.377	1659
932.61	1794
932.842	1595
933.074	1681
933.307	1642
933.539	1740
933.771	1732
934.003	1637
934.236	1737
934.468	1742
934.7	1647
934.932	1695
935.164	1647
935.395	1621
935.627	1683
935.859	1652
936.091	1610
936.323	1690
936.554	1730
936.786	1626
937.017	1599
937.249	1645
937.481	1568
937.712	1641
937.943	1616
938.175	1628
938.406	1619
938.637	1688
938.869	1560
939.1	1649
939.331	1597
939.562	1640
939.793	1626
940.024	1677
940.255	1669
940.486	1598
940.717	1602
940.948	1602
941.179	1550
941.409	1580
941.64	1566
941.871	1592
942.102	1579
942.332	1581
942.563	1632
942.793	1580
943.024	1527
943.254	1613
943.484	1638
943.715	1624
943.945	1606
944.175	1537
944.405	1536
944.636	1510
944.866	1606
945.096	1579
945.326	1546
945.556	1573
945.786	1614
946.016	1567
946.245	1518
946.475	1541
946.705	1543
946.935	1551
947.164	1559
947.394	1499
947.624	1513
947.853	1550
948.083	1539
948.312	1505
948.542	1470
948.771	1454
949	1469
949.23	1496
949.459	1491
949.688	1519
949.917	1516
950.146	1501
950.375	1546
950.604	1478
950.833	1548
951.062	1542
951.291	1506
951.52	1454
951.749	1464
951.978	1444
952.206	1477
952.435	1455
952.664	1491
952.892	1509
953.121	1479
953.349	1509
953.578	1477
953.806	1475
954.035	1413
954.263	1438
954.491	1410
954.719	1456
954.948	1418
955.176	1382
955.404	1333
955.632	1401
955.86	1444
956.088	1407
956.316	1458
956.544	1457
956.772	1390
956.999	1392
957.227	1457
957.455	1389
957.683	1414
957.91	1387
958.138	1341
958.365	1383
958.593	1353
958.82	1328
959.048	1389
959.275	1357
959.502	1346
959.73	1332
959.957	1380
960.184	1378
960.411	1368
960.638	1406
960.865	1382
961.092	1386
961.319	1300
961.546	1383
961.773	1388
962	1354
962.227	1397
962.454	1349
962.68	1340
962.907	1359
963.134	1323
963.36	1349
963.587	1368
963.813	1296
964.04	1367
964.266	1288
964.493	1373
964.719	1357
964.945	1346
965.171	1258
965.398	1321
965.624	1347
965.85	1292
966.076	1257
966.302	1301
966.528	1280
966.754	1313
966.98	1307
967.206	1290
967.431	1244
967.657	1340
967.883	1294
968.109	1315
968.334	1227
968.56	1249
968.785	1281
969.011	1215
969.236	1263
969.462	1235
969.687	1244
969.912	1293
970.138	1311
970.363	1235
970.588	1269
970.813	1240
971.038	1215
971.263	1248
971.488	1246
971.713	1303
971.938	1281
972.163	1179
972.388	1203
972.613	1222
972.838	1217
973.062	1229
973.287	1218
973.512	1167
973.736	1222
973.961	1206
974.185	1153
974.41	1214
974.634	1136
974.858	1142
975.083	1188
975.307	1212
975.531	1130
975.755	1113
975.98	1143
976.204	1102
976.428	1095
976.652	1110
976.876	1084
977.1	1133
977.324	1101
977.547	1143
977.771	1169
977.995	1140
978.219	1085
978.442	1192
978.666	1129
978.89	1131
979.113	1125
979.337	1130
979.56	1094
979.783	1160
980.007	1058
980.23	1096
980.453	1078
980.677	1092
980.9	1131
981.123	1035
981.346	1141
981.569	1084
981.792	1141
982.015	1089
982.238	1078
982.461	1077
982.684	1050
982.907	1036
983.129	1042
983.352	1106
983.575	1075
983.797	1082
984.02	1044
984.242	1057
984.465	1049
984.687	1096
984.91	1096
985.132	1061
985.354	1115
985.577	1087
985.799	1086
986.021	978
986.243	1036
986.465	1061
986.687	1097
986.909	1133
987.131	1063
987.353	1035
987.575	1074
987.797	1054
988.019	985
988.241	1058
988.462	1011
988.684	1082
988.906	1115
989.127	1128
989.349	999
989.57	1056
989.792	1090
990.013	1098
990.234	1102
990.456	1122
990.677	1106
990.898	1060
991.119	1055
991.341	1103
991.562	1033
991.783	1065
992.004	1026
992.225	1021
992.446	1066
992.667	977
992.887	1075
993.108	944
993.329	1104
993.55	1050
993.77	989
993.991	993
994.212	1050
994.432	1027
994.653	1048
994.873	1045
995.093	956
995.314	974
995.534	1049
995.754	1061
995.975	1109
996.195	999
996.415	1070
996.635	1032
996.855	1025
997.075	1026
997.295	1031
997.515	1018
997.735	1057
997.955	1052
998.174	1035
998.394	1012
998.614	1038
998.834	1025
999.053	1075
999.273	1051
999.492	1099
999.712	1059
999.931	1017
1000.151	1063
1000.37	1047
1000.589	1100
1000.809	1017
1001.028	1138
1001.247	1085
1001.466	959
1001.685	1119
1001.904	1076
1002.123	1049
1002.342	1050
1002.561	1030
1002.78	1048
1002.999	1106
1003.218	1086
1003.436	1052
1003.655	1099
1003.874	1061
1004.092	1067
1004.311	1094
1004.53	1078
1004.748	1174
1004.966	1102
1005.185	1143
1005.403	1104
1005.622	1096
1005.84	1153
1006.058	1079
1006.276	1087
1006.494	1585
1006.712	1101
1006.931	1166
1007.149	1091
1007.367	1087
1007.584	1135
1007.802	1166
1008.02	1104
1008.238	1226
1008.456	1210
1008.673	1089
1008.891	1200
1009.109	1162
1009.326	1238
1009.544	1292
1009.761	1216
1009.979	1314
1010.196	1321
1010.413	1405
1010.631	1488
1010.848	1533
1011.065	1531
1011.282	1501
1011.5	1428
1011.717	1567
1011.934	1499
1012.151	1507
1012.368	1509
1012.585	1445
1012.801	1509
1013.018	1486
1013.235	1457
1013.452	1476
1013.669	1491
1013.885	1498
1014.102	1537
1014.318	1489
1014.535	1441
1014.751	1515
1014.968	1498
1015.184	1529
1015.401	1433
1015.617	1467
1015.833	1436
1016.049	1423
1016.266	1403
1016.482	1445
1016.698	1332
1016.914	1389
1017.13	1355
1017.346	1373
1017.562	1451
1017.778	1366
1017.993	1340
1018.209	1397
1018.425	1377
1018.641	1338
1018.856	1315
1019.072	1340
1019.288	1402
1019.503	1371
1019.719	1268
1019.934	1287
1020.149	1388
1020.365	1310
1020.58	1245
1020.795	1290
1021.011	1254
1021.226	1208
1021.441	1228
1021.656	1142
1021.871	1089
1022.086	1098
1022.301	1109
1022.516	1115
1022.731	1170
1022.946	1062
1023.16	1033
1023.375	1017
1023.59	987
1023.804	971
1024.019	1059
1024.234	938
1024.448	965
1024.663	898
1024.877	916
1025.092	929
1025.306	938
1025.52	837
1025.734	938
1025.949	849
1026.163	844
1026.377	787
1026.591	820
1026.805	747
1027.019	759
1027.233	729
1027.447	658
1027.661	785
1027.875	711
1028.088	743
1028.302	665
1028.516	643
1028.73	661
1028.943	638
1029.157	597
1029.37	560
1029.584	-3
1029.797	-2
1030.011	-1
1030.224	-1
