Data from QEP037381__171__10-43-14-538.txt Node

Date: Wed Dec 21 10:43:14 EST 2022
User: dcclab
Spectrometer: QEP03738
Trigger mode: 4
Integration Time (sec): 1.000000E1
Scans to average: 1
Electric dark correction enabled: true
Nonlinearity correction enabled: false
Boxcar width: 0
XAxis mode: Wavelengths
Number of Pixels in Spectrum: 1044
>>>>>Begin Spectral Data<<<<<
784.041	11.38
784.3	-0.62
784.558	-3.62
784.817	-3.62
785.075	123767.38
785.334	20455.38
785.592	9223.38
785.851	6293.38
786.109	4731.38
786.368	3667.38
786.626	2971.38
786.884	2435.38
787.143	2050.38
787.401	1666.38
787.659	1486.38
787.917	1255.38
788.175	1179.38
788.433	1027.38
788.691	920.38
788.949	847.38
789.207	825.38
789.465	692.38
789.723	672.38
789.98	633.38
790.238	639.38
790.496	607.38
790.753	579.38
791.011	624.38
791.268	549.38
791.526	542.38
791.783	548.38
792.041	527.38
792.298	454.38
792.556	511.38
792.813	485.38
793.07	482.38
793.327	458.38
793.584	535.38
793.841	455.38
794.099	477.38
794.356	524.38
794.613	431.38
794.869	477.38
795.126	428.38
795.383	416.38
795.64	440.38
795.897	397.38
796.153	443.38
796.41	422.38
796.667	426.38
796.923	416.38
797.18	415.38
797.436	444.38
797.693	402.38
797.949	469.38
798.206	487.38
798.462	385.38
798.718	463.38
798.974	434.38
799.231	476.38
799.487	472.38
799.743	471.38
799.999	500.38
800.255	489.38
800.511	473.38
800.767	527.38
801.023	502.38
801.279	528.38
801.534	562.38
801.79	612.38
802.046	633.38
802.302	760.38
802.557	865.38
802.813	1050.38
803.068	1296.38
803.324	1731.38
803.579	2349.38
803.835	3247.38
804.09	4497.38
804.345	5843.38
804.601	7291.38
804.856	8809.38
805.111	10044.38
805.366	10960.38
805.621	11701.38
805.876	12129.38
806.131	12475.38
806.386	12680.38
806.641	12869.38
806.896	13056.38
807.151	13360.38
807.406	13473.38
807.661	13756.38
807.915	13936.38
808.17	14149.38
808.425	14343.38
808.679	14336.38
808.934	14537.38
809.188	14616.38
809.443	14861.38
809.697	15010.38
809.951	15062.38
810.206	15176.38
810.46	15390.38
810.714	15416.38
810.968	15518.38
811.223	15681.38
811.477	15796.38
811.731	15994.38
811.985	15949.38
812.239	16065.38
812.493	16118.38
812.747	16243.38
813	16294.38
813.254	16314.38
813.508	16455.38
813.762	16493.38
814.015	16483.38
814.269	16611.38
814.522	16902.38
814.776	16998.38
815.03	17077.38
815.283	17379.38
815.536	17573.38
815.79	17899.38
816.043	18111.38
816.296	18345.38
816.55	18572.38
816.803	18706.38
817.056	19006.38
817.309	19164.38
817.562	19337.38
817.815	19631.38
818.068	19675.38
818.321	19908.38
818.574	20049.38
818.827	20354.38
819.079	20583.38
819.332	20905.38
819.585	21102.38
819.838	21415.38
820.09	21518.38
820.343	21714.38
820.595	21767.38
820.848	21893.38
821.1	22024.38
821.353	21968.38
821.605	22053.38
821.857	21925.38
822.11	21853.38
822.362	21885.38
822.614	21705.38
822.866	21741.38
823.118	21766.38
823.37	21847.38
823.622	21779.38
823.874	21965.38
824.126	22051.38
824.378	22046.38
824.63	22136.38
824.882	22228.38
825.134	22149.38
825.385	22097.38
825.637	22028.38
825.888	21897.38
826.14	21909.38
826.392	21817.38
826.643	21686.38
826.895	21599.38
827.146	21511.38
827.397	21534.38
827.649	21563.38
827.9	21533.38
828.151	21438.38
828.402	21548.38
828.653	21649.38
828.905	21627.38
829.156	21725.38
829.407	21644.38
829.658	21673.38
829.909	21755.38
830.159	21703.38
830.41	21653.38
830.661	21466.38
830.912	21316.38
831.162	21211.38
831.413	21111.38
831.664	21281.38
831.914	21087.38
832.165	21247.38
832.415	21200.38
832.666	21149.38
832.916	21096.38
833.167	21060.38
833.417	21124.38
833.667	21046.38
833.917	21011.38
834.168	20912.38
834.418	20931.38
834.668	20767.38
834.918	20714.38
835.168	20609.38
835.418	20556.38
835.668	20536.38
835.918	20503.38
836.167	20415.38
836.417	20285.38
836.667	20346.38
836.917	20268.38
837.166	20271.38
837.416	20336.38
837.666	20303.38
837.915	20152.38
838.165	20167.38
838.414	20048.38
838.663	20040.38
838.913	20070.38
839.162	19921.38
839.411	19998.38
839.661	19782.38
839.91	19834.38
840.159	19770.38
840.408	19781.38
840.657	19727.38
840.906	19809.38
841.155	19739.38
841.404	19728.38
841.653	19833.38
841.902	19761.38
842.15	19848.38
842.399	19768.38
842.648	19817.38
842.897	19673.38
843.145	19678.38
843.394	19492.38
843.642	19380.38
843.891	19239.38
844.139	19182.38
844.388	19086.38
844.636	18889.38
844.884	18933.38
845.133	18859.38
845.381	19037.38
845.629	18921.38
845.877	18801.38
846.125	18864.38
846.373	18899.38
846.621	18738.38
846.869	18696.38
847.117	18563.38
847.365	18515.38
847.613	18438.38
847.861	18331.38
848.108	18387.38
848.356	18348.38
848.604	18287.38
848.851	18347.38
849.099	18393.38
849.346	18429.38
849.594	18458.38
849.841	18473.38
850.089	18513.38
850.336	18481.38
850.583	18570.38
850.831	18473.38
851.078	18362.38
851.325	18287.38
851.572	18321.38
851.819	18007.38
852.066	17797.38
852.313	17599.38
852.56	17476.38
852.807	17361.38
853.054	17318.38
853.301	17396.38
853.548	17344.38
853.794	17367.38
854.041	17436.38
854.288	17465.38
854.534	17657.38
854.781	17603.38
855.028	17534.38
855.274	17563.38
855.52	17462.38
855.767	17308.38
856.013	17391.38
856.26	17609.38
856.506	17200.38
856.752	17157.38
856.998	17121.38
857.244	17214.38
857.49	17249.38
857.736	17311.38
857.982	17340.38
858.228	17231.38
858.474	17056.38
858.72	17000.38
858.966	16883.38
859.212	16757.38
859.458	16502.38
859.703	16401.38
859.949	16240.38
860.195	16143.38
860.44	15989.38
860.686	15968.38
860.931	15966.38
861.177	15802.38
861.422	15712.38
861.667	15835.38
861.913	15674.38
862.158	15775.38
862.403	15899.38
862.648	15797.38
862.893	15880.38
863.138	15774.38
863.384	15783.38
863.629	15779.38
863.873	15724.38
864.118	15703.38
864.363	15531.38
864.608	15591.38
864.853	15492.38
865.098	15426.38
865.342	15420.38
865.587	15167.38
865.832	15369.38
866.076	15219.38
866.321	15100.38
866.565	15147.38
866.81	14900.38
867.054	15040.38
867.298	14999.38
867.543	14846.38
867.787	14982.38
868.031	14923.38
868.275	14793.38
868.519	14847.38
868.764	14791.38
869.008	14735.38
869.252	14701.38
869.496	14710.38
869.739	14596.38
869.983	14627.38
870.227	14580.38
870.471	14581.38
870.715	14706.38
870.958	14702.38
871.202	14692.38
871.446	14705.38
871.689	14711.38
871.933	14694.38
872.176	14700.38
872.42	14711.38
872.663	14610.38
872.906	14641.38
873.15	14537.38
873.393	14509.38
873.636	14439.38
873.879	14212.38
874.122	14176.38
874.366	13948.38
874.609	13944.38
874.852	13791.38
875.095	13758.38
875.337	13597.38
875.58	13524.38
875.823	13492.38
876.066	13459.38
876.309	13514.38
876.551	13264.38
876.794	13287.38
877.037	13254.38
877.279	13227.38
877.522	13198.38
877.764	13252.38
878.007	13210.38
878.249	13181.38
878.491	13189.38
878.734	13209.38
878.976	13165.38
879.218	13038.38
879.46	13001.38
879.702	12924.38
879.945	12791.38
880.187	12617.38
880.429	12592.38
880.671	12593.38
880.912	12496.38
881.154	12451.38
881.396	12326.38
881.638	12370.38
881.88	12453.38
882.121	12319.38
882.363	12392.38
882.605	12353.38
882.846	12230.38
883.088	12285.38
883.329	12212.38
883.571	12167.38
883.812	12316.38
884.053	12536.38
884.295	12738.38
884.536	12888.38
884.777	12787.38
885.018	12669.38
885.259	12600.38
885.5	12517.38
885.742	12786.38
885.982	12436.38
886.223	12331.38
886.464	12392.38
886.705	12202.38
886.946	12079.38
887.187	11939.38
887.428	11820.38
887.668	11672.38
887.909	11511.38
888.15	11418.38
888.39	11318.38
888.631	11284.38
888.871	11213.38
889.111	11080.38
889.352	10971.38
889.592	10958.38
889.833	10863.38
890.073	10808.38
890.313	10726.38
890.553	10586.38
890.793	10608.38
891.033	10587.38
891.273	10531.38
891.513	10429.38
891.753	10455.38
891.993	10354.38
892.233	10423.38
892.473	10521.38
892.713	10469.38
892.952	10329.38
893.192	10473.38
893.432	10363.38
893.671	10445.38
893.911	10369.38
894.15	10327.38
894.39	10175.38
894.629	10186.38
894.869	10149.38
895.108	9984.38
895.347	9951.38
895.587	9897.38
895.826	9850.38
896.065	9834.38
896.304	9892.38
896.543	9922.38
896.782	9741.38
897.021	9791.38
897.26	9702.38
897.499	9784.38
897.738	9761.38
897.977	9529.38
898.216	9590.38
898.454	9494.38
898.693	9394.38
898.932	9394.38
899.17	9311.38
899.409	9284.38
899.647	9254.38
899.886	9242.38
900.124	9334.38
900.363	9215.38
900.601	9220.38
900.839	9216.38
901.078	9346.38
901.316	9271.38
901.554	9295.38
901.792	9361.38
902.03	9238.38
902.268	9355.38
902.506	9349.38
902.744	9209.38
902.982	9149.38
903.22	9076.38
903.458	9049.38
903.695	8908.38
903.933	8806.38
904.171	8657.38
904.409	8485.38
904.646	8448.38
904.884	8338.38
905.121	8280.38
905.359	8203.38
905.596	8115.38
905.833	8025.38
906.071	8013.38
906.308	8056.38
906.545	8002.38
906.783	7918.38
907.02	7940.38
907.257	7870.38
907.494	7839.38
907.731	7859.38
907.968	7857.38
908.205	7802.38
908.442	7753.38
908.679	7698.38
908.915	7682.38
909.152	7619.38
909.389	7492.38
909.626	7463.38
909.862	7417.38
910.099	7419.38
910.335	7375.38
910.572	7264.38
910.808	7269.38
911.045	7271.38
911.281	7188.38
911.518	7274.38
911.754	7164.38
911.99	7111.38
912.226	7105.38
912.463	7051.38
912.699	7015.38
912.935	6930.38
913.171	6922.38
913.407	6766.38
913.643	6828.38
913.879	6764.38
914.114	6669.38
914.35	6606.38
914.586	6563.38
914.822	6529.38
915.057	6555.38
915.293	6355.38
915.529	6383.38
915.764	6454.38
916	6484.38
916.235	6355.38
916.471	6443.38
916.706	6276.38
916.941	6350.38
917.177	6273.38
917.412	6330.38
917.647	6250.38
917.882	6259.38
918.117	6293.38
918.352	6232.38
918.588	6266.38
918.823	6112.38
919.057	6103.38
919.292	5971.38
919.527	6042.38
919.762	5901.38
919.997	5905.38
920.232	5769.38
920.466	5830.38
920.701	5706.38
920.935	5713.38
921.17	5629.38
921.405	5572.38
921.639	5641.38
921.873	5558.38
922.108	5548.38
922.342	5607.38
922.576	5547.38
922.811	5463.38
923.045	5531.38
923.279	5525.38
923.513	5346.38
923.747	5417.38
923.981	5406.38
924.215	5335.38
924.449	5316.38
924.683	5241.38
924.917	5215.38
925.151	5170.38
925.385	5248.38
925.618	5208.38
925.852	5194.38
926.086	5089.38
926.319	5182.38
926.553	5146.38
926.786	5125.38
927.02	5105.38
927.253	5154.38
927.486	5151.38
927.72	5056.38
927.953	5120.38
928.186	4983.38
928.42	5043.38
928.653	4993.38
928.886	4950.38
929.119	5033.38
929.352	4953.38
929.585	4904.38
929.818	4875.38
930.051	4851.38
930.284	4855.38
930.516	4711.38
930.749	4680.38
930.982	4731.38
931.215	4707.38
931.447	4666.38
931.68	4648.38
931.912	4584.38
932.145	4613.38
932.377	4668.38
932.61	4790.38
932.842	4544.38
933.074	4651.38
933.307	4601.38
933.539	4687.38
933.771	4620.38
934.003	4599.38
934.236	4678.38
934.468	4654.38
934.7	4563.38
934.932	4600.38
935.164	4542.38
935.395	4504.38
935.627	4537.38
935.859	4525.38
936.091	4468.38
936.323	4529.38
936.554	4486.38
936.786	4407.38
937.017	4380.38
937.249	4408.38
937.481	4330.38
937.712	4432.38
937.943	4352.38
938.175	4347.38
938.406	4393.38
938.637	4402.38
938.869	4278.38
939.1	4366.38
939.331	4313.38
939.562	4330.38
939.793	4302.38
940.024	4308.38
940.255	4278.38
940.486	4254.38
940.717	4212.38
940.948	4202.38
941.179	4142.38
941.409	4156.38
941.64	4176.38
941.871	4137.38
942.102	4145.38
942.332	4163.38
942.563	4199.38
942.793	4155.38
943.024	4124.38
943.254	4181.38
943.484	4179.38
943.715	4193.38
943.945	4127.38
944.175	4079.38
944.405	4037.38
944.636	4081.38
944.866	4088.38
945.096	4092.38
945.326	4020.38
945.556	4067.38
945.786	4058.38
946.016	4033.38
946.245	3934.38
946.475	3977.38
946.705	3963.38
946.935	3954.38
947.164	3912.38
947.394	3860.38
947.624	3890.38
947.853	3897.38
948.083	3909.38
948.312	3808.38
948.542	3763.38
948.771	3772.38
949	3736.38
949.23	3758.38
949.459	3789.38
949.688	3819.38
949.917	3741.38
950.146	3783.38
950.375	3833.38
950.604	3682.38
950.833	3802.38
951.062	3789.38
951.291	3742.38
951.52	3726.38
951.749	3731.38
951.978	3698.38
952.206	3662.38
952.435	3647.38
952.664	3721.38
952.892	3704.38
953.121	3609.38
953.349	3662.38
953.578	3652.38
953.806	3593.38
954.035	3569.38
954.263	3590.38
954.491	3491.38
954.719	3583.38
954.948	3476.38
955.176	3484.38
955.404	3447.38
955.632	3487.38
955.86	3448.38
956.088	3458.38
956.316	3495.38
956.544	3483.38
956.772	3412.38
956.999	3350.38
957.227	3440.38
957.455	3378.38
957.683	3402.38
957.91	3325.38
958.138	3274.38
958.365	3305.38
958.593	3248.38
958.82	3216.38
959.048	3271.38
959.275	3273.38
959.502	3271.38
959.73	3224.38
959.957	3241.38
960.184	3223.38
960.411	3207.38
960.638	3282.38
960.865	3198.38
961.092	3250.38
961.319	3126.38
961.546	3269.38
961.773	3242.38
962	3209.38
962.227	3258.38
962.454	3223.38
962.68	3147.38
962.907	3158.38
963.134	3101.38
963.36	3122.38
963.587	3145.38
963.813	3021.38
964.04	3059.38
964.266	3003.38
964.493	3120.38
964.719	3061.38
964.945	3070.38
965.171	2913.38
965.398	3007.38
965.624	3019.38
965.85	2937.38
966.076	2925.38
966.302	2943.38
966.528	2916.38
966.754	2949.38
966.98	2902.38
967.206	2936.38
967.431	2841.38
967.657	2915.38
967.883	2908.38
968.109	2873.38
968.334	2825.38
968.56	2816.38
968.785	2837.38
969.011	2785.38
969.236	2838.38
969.462	2767.38
969.687	2793.38
969.912	2808.38
970.138	2819.38
970.363	2725.38
970.588	2805.38
970.813	2731.38
971.038	2717.38
971.263	2743.38
971.488	2742.38
971.713	2769.38
971.938	2743.38
972.163	2644.38
972.388	2659.38
972.613	2652.38
972.838	2655.38
973.062	2634.38
973.287	2609.38
973.512	2520.38
973.736	2611.38
973.961	2578.38
974.185	2555.38
974.41	2570.38
974.634	2491.38
974.858	2511.38
975.083	2523.38
975.307	2515.38
975.531	2492.38
975.755	2415.38
975.98	2449.38
976.204	2417.38
976.428	2402.38
976.652	2373.38
976.876	2371.38
977.1	2400.38
977.324	2337.38
977.547	2435.38
977.771	2376.38
977.995	2379.38
978.219	2343.38
978.442	2410.38
978.666	2323.38
978.89	2336.38
979.113	2367.38
979.337	2312.38
979.56	2301.38
979.783	2357.38
980.007	2267.38
980.23	2321.38
980.453	2233.38
980.677	2289.38
980.9	2291.38
981.123	2172.38
981.346	2247.38
981.569	2258.38
981.792	2288.38
982.015	2240.38
982.238	2188.38
982.461	2228.38
982.684	2138.38
982.907	2132.38
983.129	2117.38
983.352	2192.38
983.575	2134.38
983.797	2143.38
984.02	2077.38
984.242	2102.38
984.465	2135.38
984.687	2134.38
984.91	2136.38
985.132	2117.38
985.354	2109.38
985.577	2103.38
985.799	2071.38
986.021	1976.38
986.243	1969.38
986.465	2029.38
986.687	2086.38
986.909	2122.38
987.131	2002.38
987.353	2007.38
987.575	2014.38
987.797	1980.38
988.019	1940.38
988.241	2007.38
988.462	1962.38
988.684	1995.38
988.906	2050.38
989.127	2040.38
989.349	1950.38
989.57	1955.38
989.792	1987.38
990.013	2016.38
990.234	2004.38
990.456	2013.38
990.677	1979.38
990.898	1906.38
991.119	1932.38
991.341	1971.38
991.562	1866.38
991.783	1922.38
992.004	1875.38
992.225	1837.38
992.446	1902.38
992.667	1802.38
992.887	1880.38
993.108	1762.38
993.329	1916.38
993.55	1863.38
993.77	1799.38
993.991	1807.38
994.212	1817.38
994.432	1840.38
994.653	1786.38
994.873	1804.38
995.093	1678.38
995.314	1741.38
995.534	1828.38
995.754	1835.38
995.975	1795.38
996.195	1733.38
996.415	1767.38
996.635	1735.38
996.855	1755.38
997.075	1748.38
997.295	1733.38
997.515	1692.38
997.735	1721.38
997.955	1713.38
998.174	1713.38
998.394	1688.38
998.614	1725.38
998.834	1703.38
999.053	1735.38
999.273	1720.38
999.492	1776.38
999.712	1749.38
999.931	1649.38
1000.151	1731.38
1000.37	1701.38
1000.589	1734.38
1000.809	1687.38
1001.028	1759.38
1001.247	1694.38
1001.466	1606.38
1001.685	1703.38
1001.904	1661.38
1002.123	1628.38
1002.342	1651.38
1002.561	1602.38
1002.78	1630.38
1002.999	1666.38
1003.218	1636.38
1003.436	1612.38
1003.655	1642.38
1003.874	1588.38
1004.092	1594.38
1004.311	1635.38
1004.53	1588.38
1004.748	1682.38
1004.966	1582.38
1005.185	1655.38
1005.403	1621.38
1005.622	1615.38
1005.84	1692.38
1006.058	1560.38
1006.276	1599.38
1006.494	2114.38
1006.712	1619.38
1006.931	1639.38
1007.149	1558.38
1007.367	1582.38
1007.584	1602.38
1007.802	1651.38
1008.02	1564.38
1008.238	1705.38
1008.456	1663.38
1008.673	1529.38
1008.891	1629.38
1009.109	1602.38
1009.326	1630.38
1009.544	1703.38
1009.761	1624.38
1009.979	1726.38
1010.196	1747.38
1010.413	1852.38
1010.631	1895.38
1010.848	1943.38
1011.065	1924.38
1011.282	1903.38
1011.5	1811.38
1011.717	1891.38
1011.934	1849.38
1012.151	1917.38
1012.368	1847.38
1012.585	1801.38
1012.801	1844.38
1013.018	1859.38
1013.235	1797.38
1013.452	1777.38
1013.669	1822.38
1013.885	1818.38
1014.102	1840.38
1014.318	1795.38
1014.535	1776.38
1014.751	1798.38
1014.968	1797.38
1015.184	1837.38
1015.401	1744.38
1015.617	1759.38
1015.833	1690.38
1016.049	1697.38
1016.266	1647.38
1016.482	1683.38
1016.698	1593.38
1016.914	1661.38
1017.13	1591.38
1017.346	1627.38
1017.562	1641.38
1017.778	1580.38
1017.993	1544.38
1018.209	1594.38
1018.425	1585.38
1018.641	1523.38
1018.856	1498.38
1019.072	1543.38
1019.288	1562.38
1019.503	1545.38
1019.719	1441.38
1019.934	1460.38
1020.149	1537.38
1020.365	1471.38
1020.58	1415.38
1020.795	1470.38
1021.011	1405.38
1021.226	1372.38
1021.441	1390.38
1021.656	1299.38
1021.871	1256.38
1022.086	1238.38
1022.301	1229.38
1022.516	1214.38
1022.731	1284.38
1022.946	1183.38
1023.16	1181.38
1023.375	1135.38
1023.59	1123.38
1023.804	1104.38
1024.019	1190.38
1024.234	1028.38
1024.448	1101.38
1024.663	1027.38
1024.877	1031.38
1025.092	1030.38
1025.306	1064.38
1025.52	954.38
1025.734	1028.38
1025.949	939.38
1026.163	924.38
1026.377	856.38
1026.591	902.38
1026.805	846.38
1027.019	834.38
1027.233	798.38
1027.447	758.38
1027.661	852.38
1027.875	794.38
1028.088	785.38
1028.302	727.38
1028.516	717.38
1028.73	716.38
1028.943	698.38
1029.157	654.38
1029.37	610.38
1029.584	-2.62
1029.797	0.38
1030.011	-1.62
1030.224	0.38
