Data from QEP037381__220__10-51-24-540.txt Node

Date: Wed Dec 21 10:51:24 EST 2022
User: dcclab
Spectrometer: QEP03738
Trigger mode: 4
Integration Time (sec): 1.000000E1
Scans to average: 1
Electric dark correction enabled: true
Nonlinearity correction enabled: false
Boxcar width: 0
XAxis mode: Wavelengths
Number of Pixels in Spectrum: 1044
>>>>>Begin Spectral Data<<<<<
784.041	13
784.3	0
784.558	-3
784.817	-7
785.075	104928
785.334	18492
785.592	8732
785.851	6065
786.109	4515
786.368	3530
786.626	2851
786.884	2318
787.143	1920
787.401	1596
787.659	1451
787.917	1226
788.175	1126
788.433	977
788.691	884
788.949	794
789.207	762
789.465	652
789.723	660
789.98	591
790.238	621
790.496	589
790.753	558
791.011	598
791.268	526
791.526	510
791.783	520
792.041	499
792.298	427
792.556	490
792.813	480
793.07	443
793.327	439
793.584	511
793.841	415
794.099	457
794.356	510
794.613	406
794.869	438
795.126	392
795.383	395
795.64	418
795.897	372
796.153	411
796.41	402
796.667	395
796.923	408
797.18	393
797.436	439
797.693	391
797.949	446
798.206	455
798.462	382
798.718	436
798.974	415
799.231	443
799.487	435
799.743	442
799.999	465
800.255	452
800.511	444
800.767	484
801.023	437
801.279	476
801.534	503
801.79	527
802.046	535
802.302	625
802.557	668
802.813	792
803.068	931
803.324	1251
803.579	1614
803.835	2186
804.09	2968
804.345	3843
804.601	4823
804.856	5840
805.111	6713
805.366	7320
805.621	7818
805.876	8115
806.131	8265
806.386	8473
806.641	8606
806.896	8739
807.151	8943
807.406	8941
807.661	9211
807.915	9324
808.17	9469
808.425	9652
808.679	9632
808.934	9817
809.188	9826
809.443	9918
809.697	9978
809.951	10031
810.206	10132
810.46	10247
810.714	10295
810.968	10426
811.223	10514
811.477	10591
811.731	10663
811.985	10706
812.239	10685
812.493	10798
812.747	10804
813	10821
813.254	10874
813.508	10907
813.762	10967
814.015	10939
814.269	11079
814.522	11120
814.776	11279
815.03	11349
815.283	11565
815.536	11765
815.79	11933
816.043	12086
816.296	12215
816.55	12331
816.803	12561
817.056	12703
817.309	12741
817.562	12952
817.815	13033
818.068	13111
818.321	13247
818.574	13382
818.827	13580
819.079	13683
819.332	14040
819.585	14114
819.838	14345
820.09	14324
820.343	14481
820.595	14458
820.848	14693
821.1	14697
821.353	14671
821.605	14651
821.857	14601
822.11	14482
822.362	14520
822.614	14444
822.866	14611
823.118	14484
823.37	14633
823.622	14650
823.874	14683
824.126	14747
824.378	14709
824.63	14709
824.882	14742
825.134	14775
825.385	14687
825.637	14625
825.888	14632
826.14	14632
826.392	14539
826.643	14442
826.895	14401
827.146	14389
827.397	14307
827.649	14371
827.9	14358
828.151	14223
828.402	14340
828.653	14373
828.905	14432
829.156	14518
829.407	14311
829.658	14426
829.909	14532
830.159	14428
830.41	14358
830.661	14283
830.912	14149
831.162	14131
831.413	14207
831.664	14116
831.914	14061
832.165	14119
832.415	14117
832.666	14069
832.916	14090
833.167	14116
833.417	14098
833.667	13968
833.917	13903
834.168	13941
834.418	13945
834.668	13911
834.918	13846
835.168	13816
835.418	13625
835.668	13627
835.918	13679
836.167	13667
836.417	13546
836.667	13562
836.917	13565
837.166	13484
837.416	13588
837.666	13517
837.915	13507
838.165	13441
838.414	13394
838.663	13312
838.913	13368
839.162	13309
839.411	13292
839.661	13237
839.91	13233
840.159	13254
840.408	13189
840.657	13248
840.906	13185
841.155	13329
841.404	13188
841.653	13246
841.902	13204
842.15	13254
842.399	13357
842.648	13253
842.897	13255
843.145	13110
843.394	13045
843.642	12978
843.891	12970
844.139	12863
844.388	12733
844.636	12642
844.884	12673
845.133	12626
845.381	12716
845.629	12753
845.877	12650
846.125	12665
846.373	12559
846.621	12559
846.869	12604
847.117	12477
847.365	12460
847.613	12310
847.861	12311
848.108	12368
848.356	12367
848.604	12305
848.851	12304
849.099	12334
849.346	12377
849.594	12417
849.841	12442
850.089	12427
850.336	12463
850.583	12502
850.831	12552
851.078	12399
851.325	12305
851.572	12371
851.819	12298
852.066	11955
852.313	11896
852.56	11717
852.807	11665
853.054	11695
853.301	11683
853.548	11634
853.794	11737
854.041	11803
854.288	11849
854.534	12047
854.781	11920
855.028	11834
855.274	11938
855.52	11876
855.767	11737
856.013	11785
856.26	12033
856.506	11696
856.752	11645
856.998	11659
857.244	11614
857.49	11649
857.736	11788
857.982	11704
858.228	11701
858.474	11581
858.72	11481
858.966	11408
859.212	11352
859.458	11227
859.703	11072
859.949	10920
860.195	10946
860.44	10876
860.686	10800
860.931	10782
861.177	10756
861.422	10654
861.667	10617
861.913	10611
862.158	10637
862.403	10714
862.648	10645
862.893	10757
863.138	10668
863.384	10624
863.629	10652
863.873	10665
864.118	10639
864.363	10531
864.608	10533
864.853	10500
865.098	10454
865.342	10389
865.587	10353
865.832	10321
866.076	10325
866.321	10152
866.565	10156
866.81	10138
867.054	10143
867.298	10117
867.543	10030
867.787	10110
868.031	10072
868.275	9998
868.519	10037
868.764	10010
869.008	9968
869.252	9996
869.496	9980
869.739	9985
869.983	10024
870.227	9997
870.471	10010
870.715	10009
870.958	10078
871.202	10031
871.446	10135
871.689	10050
871.933	10016
872.176	10018
872.42	9972
872.663	9936
872.906	10028
873.15	9974
873.393	9943
873.636	10000
873.879	9892
874.122	9748
874.366	9563
874.609	9519
874.852	9484
875.095	9419
875.337	9329
875.58	9218
875.823	9163
876.066	9217
876.309	9170
876.551	9098
876.794	9036
877.037	9120
877.279	9005
877.522	9054
877.764	9103
878.007	9006
878.249	9017
878.491	8960
878.734	8976
878.976	8944
879.218	8896
879.46	8901
879.702	8779
879.945	8745
880.187	8614
880.429	8502
880.671	8555
880.912	8590
881.154	8462
881.396	8442
881.638	8473
881.88	8377
882.121	8370
882.363	8481
882.605	8413
882.846	8432
883.088	8383
883.329	8363
883.571	8365
883.812	8509
884.053	8610
884.295	8899
884.536	9079
884.777	9005
885.018	8830
885.259	8884
885.5	8738
885.742	8980
885.982	8758
886.223	8589
886.464	8589
886.705	8401
886.946	8378
887.187	8183
887.428	8120
887.668	7990
887.909	7823
888.15	7770
888.39	7765
888.631	7766
888.871	7604
889.111	7632
889.352	7596
889.592	7462
889.833	7461
890.073	7337
890.313	7425
890.553	7257
890.793	7175
891.033	7186
891.273	7123
891.513	7109
891.753	7178
891.993	7094
892.233	7134
892.473	7166
892.713	7138
892.952	7163
893.192	7175
893.432	7091
893.671	7162
893.911	7087
894.15	7038
894.39	6950
894.629	6935
894.869	6899
895.108	6890
895.347	6786
895.587	6865
895.826	6797
896.065	6782
896.304	6813
896.543	6785
896.782	6688
897.021	6750
897.26	6650
897.499	6683
897.738	6689
897.977	6598
898.216	6572
898.454	6509
898.693	6499
898.932	6517
899.17	6444
899.409	6444
899.647	6440
899.886	6414
900.124	6433
900.363	6352
900.601	6427
900.839	6388
901.078	6475
901.316	6429
901.554	6486
901.792	6626
902.03	6487
902.268	6518
902.506	6570
902.744	6438
902.982	6458
903.22	6244
903.458	6178
903.695	6178
903.933	6153
904.171	5939
904.409	5859
904.646	5886
904.884	5718
905.121	5780
905.359	5634
905.596	5613
905.833	5549
906.071	5487
906.308	5538
906.545	5498
906.783	5451
907.02	5487
907.257	5450
907.494	5358
907.731	5411
907.968	5364
908.205	5395
908.442	5314
908.679	5334
908.915	5278
909.152	5240
909.389	5156
909.626	5114
909.862	5067
910.099	5113
910.335	5119
910.572	5047
910.808	5025
911.045	5015
911.281	4964
911.518	5000
911.754	4946
911.99	4951
912.226	4953
912.463	4891
912.699	4806
912.935	4812
913.171	4726
913.407	4665
913.643	4716
913.879	4667
914.114	4582
914.35	4532
914.586	4551
914.822	4492
915.057	4542
915.293	4402
915.529	4411
915.764	4472
916	4458
916.235	4406
916.471	4386
916.706	4314
916.941	4365
917.177	4370
917.412	4394
917.647	4318
917.882	4266
918.117	4363
918.352	4346
918.588	4345
918.823	4245
919.057	4223
919.292	4113
919.527	4237
919.762	4093
919.997	4127
920.232	4000
920.466	4061
920.701	3911
920.935	3981
921.17	3933
921.405	3863
921.639	3933
921.873	3898
922.108	3910
922.342	3866
922.576	3851
922.811	3773
923.045	3844
923.279	3875
923.513	3666
923.747	3775
923.981	3773
924.215	3723
924.449	3700
924.683	3646
924.917	3634
925.151	3640
925.385	3667
925.618	3586
925.852	3652
926.086	3549
926.319	3597
926.553	3588
926.786	3566
927.02	3575
927.253	3604
927.486	3615
927.72	3540
927.953	3607
928.186	3551
928.42	3592
928.653	3526
928.886	3505
929.119	3501
929.352	3463
929.585	3447
929.818	3377
930.051	3397
930.284	3430
930.516	3307
930.749	3326
930.982	3362
931.215	3324
931.447	3223
931.68	3267
931.912	3263
932.145	3291
932.377	3264
932.61	3373
932.842	3191
933.074	3268
933.307	3237
933.539	3314
933.771	3289
934.003	3247
934.236	3314
934.468	3339
934.7	3248
934.932	3265
935.164	3186
935.395	3181
935.627	3244
935.859	3247
936.091	3154
936.323	3205
936.554	3201
936.786	3126
937.017	3093
937.249	3136
937.481	3064
937.712	3125
937.943	3093
938.175	3104
938.406	3074
938.637	3168
938.869	3055
939.1	3098
939.331	3066
939.562	3062
939.793	3043
940.024	3103
940.255	3146
940.486	3028
940.717	3043
940.948	3028
941.179	2975
941.409	2992
941.64	2974
941.871	2967
942.102	2948
942.332	2959
942.563	3009
942.793	2988
943.024	2888
943.254	2933
943.484	3003
943.715	2985
943.945	2955
944.175	2877
944.405	2875
944.636	2922
944.866	2912
945.096	2947
945.326	2839
945.556	2917
945.786	2927
946.016	2874
946.245	2831
946.475	2827
946.705	2817
946.935	2821
947.164	2853
947.394	2769
947.624	2768
947.853	2809
948.083	2744
948.312	2747
948.542	2670
948.771	2691
949	2700
949.23	2698
949.459	2725
949.688	2773
949.917	2689
950.146	2706
950.375	2785
950.604	2673
950.833	2754
951.062	2727
951.291	2680
951.52	2643
951.749	2638
951.978	2644
952.206	2630
952.435	2628
952.664	2679
952.892	2664
953.121	2656
953.349	2637
953.578	2653
953.806	2628
954.035	2559
954.263	2589
954.491	2534
954.719	2584
954.948	2547
955.176	2524
955.404	2420
955.632	2524
955.86	2540
956.088	2504
956.316	2523
956.544	2542
956.772	2490
956.999	2439
957.227	2539
957.455	2406
957.683	2442
957.91	2416
958.138	2416
958.365	2368
958.593	2350
958.82	2302
959.048	2398
959.275	2358
959.502	2372
959.73	2335
959.957	2360
960.184	2415
960.411	2322
960.638	2377
960.865	2342
961.092	2368
961.319	2297
961.546	2385
961.773	2367
962	2335
962.227	2373
962.454	2311
962.68	2325
962.907	2335
963.134	2258
963.36	2288
963.587	2338
963.813	2236
964.04	2270
964.266	2199
964.493	2291
964.719	2229
964.945	2264
965.171	2163
965.398	2211
965.624	2241
965.85	2156
966.076	2139
966.302	2223
966.528	2164
966.754	2177
966.98	2170
967.206	2159
967.431	2107
967.657	2173
967.883	2164
968.109	2167
968.334	2064
968.56	2088
968.785	2107
969.011	2058
969.236	2133
969.462	2069
969.687	2077
969.912	2134
970.138	2098
970.363	2031
970.588	2073
970.813	2052
971.038	2007
971.263	2072
971.488	2020
971.713	2078
971.938	2069
972.163	1961
972.388	1993
972.613	1953
972.838	1976
973.062	1991
973.287	1963
973.512	1894
973.736	1966
973.961	1910
974.185	1927
974.41	1959
974.634	1851
974.858	1860
975.083	1892
975.307	1933
975.531	1867
975.755	1810
975.98	1833
976.204	1778
976.428	1761
976.652	1786
976.876	1752
977.1	1807
977.324	1760
977.547	1838
977.771	1799
977.995	1785
978.219	1746
978.442	1842
978.666	1771
978.89	1766
979.113	1764
979.337	1766
979.56	1718
979.783	1808
980.007	1694
980.23	1726
980.453	1715
980.677	1735
980.9	1768
981.123	1639
981.346	1717
981.569	1708
981.792	1725
982.015	1684
982.238	1651
982.461	1666
982.684	1630
982.907	1576
983.129	1613
983.352	1684
983.575	1645
983.797	1660
984.02	1607
984.242	1611
984.465	1611
984.687	1643
984.91	1662
985.132	1635
985.354	1633
985.577	1587
985.799	1581
986.021	1544
986.243	1562
986.465	1562
986.687	1623
986.909	1628
987.131	1605
987.353	1521
987.575	1582
987.797	1558
988.019	1487
988.241	1539
988.462	1526
988.684	1567
988.906	1579
989.127	1617
989.349	1490
989.57	1518
989.792	1578
990.013	1572
990.234	1575
990.456	1598
990.677	1583
990.898	1493
991.119	1496
991.341	1520
991.562	1464
991.783	1511
992.004	1456
992.225	1451
992.446	1511
992.667	1408
992.887	1491
993.108	1405
993.329	1515
993.55	1450
993.77	1395
993.991	1401
994.212	1423
994.432	1411
994.653	1457
994.873	1431
995.093	1317
995.314	1362
995.534	1446
995.754	1463
995.975	1497
996.195	1373
996.415	1416
996.635	1391
996.855	1406
997.075	1371
997.295	1357
997.515	1367
997.735	1429
997.955	1395
998.174	1405
998.394	1366
998.614	1419
998.834	1377
999.053	1443
999.273	1401
999.492	1416
999.712	1378
999.931	1356
1000.151	1387
1000.37	1371
1000.589	1411
1000.809	1331
1001.028	1423
1001.247	1400
1001.466	1296
1001.685	1430
1001.904	1384
1002.123	1347
1002.342	1356
1002.561	1318
1002.78	1327
1002.999	1401
1003.218	1373
1003.436	1313
1003.655	1378
1003.874	1308
1004.092	1341
1004.311	1381
1004.53	1353
1004.748	1433
1004.966	1354
1005.185	1388
1005.403	1367
1005.622	1336
1005.84	1427
1006.058	1353
1006.276	1343
1006.494	1849
1006.712	1335
1006.931	1409
1007.149	1330
1007.367	1319
1007.584	1356
1007.802	1387
1008.02	1331
1008.238	1453
1008.456	1436
1008.673	1302
1008.891	1397
1009.109	1352
1009.326	1429
1009.544	1501
1009.761	1385
1009.979	1500
1010.196	1508
1010.413	1586
1010.631	1644
1010.848	1716
1011.065	1690
1011.282	1623
1011.5	1566
1011.717	1669
1011.934	1634
1012.151	1648
1012.368	1601
1012.585	1572
1012.801	1598
1013.018	1610
1013.235	1554
1013.452	1582
1013.669	1608
1013.885	1579
1014.102	1612
1014.318	1560
1014.535	1546
1014.751	1570
1014.968	1580
1015.184	1603
1015.401	1487
1015.617	1544
1015.833	1475
1016.049	1508
1016.266	1460
1016.482	1468
1016.698	1401
1016.914	1436
1017.13	1410
1017.346	1380
1017.562	1465
1017.778	1388
1017.993	1347
1018.209	1430
1018.425	1378
1018.641	1360
1018.856	1346
1019.072	1356
1019.288	1409
1019.503	1362
1019.719	1289
1019.934	1274
1020.149	1359
1020.365	1304
1020.58	1239
1020.795	1287
1021.011	1232
1021.226	1215
1021.441	1244
1021.656	1162
1021.871	1089
1022.086	1092
1022.301	1097
1022.516	1073
1022.731	1135
1022.946	1055
1023.16	1047
1023.375	989
1023.59	984
1023.804	969
1024.019	1056
1024.234	923
1024.448	969
1024.663	885
1024.877	899
1025.092	913
1025.306	932
1025.52	824
1025.734	893
1025.949	854
1026.163	814
1026.377	758
1026.591	823
1026.805	755
1027.019	757
1027.233	683
1027.447	638
1027.661	735
1027.875	681
1028.088	705
1028.302	626
1028.516	633
1028.73	640
1028.943	623
1029.157	571
1029.37	534
1029.584	-1
1029.797	0
1030.011	-3
1030.224	1
