Data from QEP037381__258__11-03-36-588.txt Node

Date: Wed Dec 21 11:03:36 EST 2022
User: dcclab
Spectrometer: QEP03738
Trigger mode: 4
Integration Time (sec): 1.000000E1
Scans to average: 1
Electric dark correction enabled: true
Nonlinearity correction enabled: false
Boxcar width: 0
XAxis mode: Wavelengths
Number of Pixels in Spectrum: 1044
>>>>>Begin Spectral Data<<<<<
784.041	10
784.3	-1
784.558	-1
784.817	-3
785.075	95324
785.334	16224
785.592	7565
785.851	5208
786.109	3968
786.368	3065
786.626	2477
786.884	2019
787.143	1703
787.401	1380
787.659	1261
787.917	1101
788.175	994
788.433	890
788.691	796
788.949	736
789.207	705
789.465	591
789.723	574
789.98	532
790.238	561
790.496	534
790.753	515
791.011	573
791.268	497
791.526	484
791.783	495
792.041	469
792.298	383
792.556	463
792.813	433
793.07	409
793.327	410
793.584	500
793.841	417
794.099	432
794.356	478
794.613	371
794.869	426
795.126	376
795.383	377
795.64	397
795.897	342
796.153	388
796.41	377
796.667	365
796.923	376
797.18	367
797.436	412
797.693	351
797.949	401
798.206	422
798.462	340
798.718	380
798.974	375
799.231	407
799.487	383
799.743	406
799.999	415
800.255	404
800.511	368
800.767	390
801.023	383
801.279	406
801.534	411
801.79	428
802.046	408
802.302	469
802.557	461
802.813	509
803.068	492
803.324	622
803.579	707
803.835	860
804.09	1164
804.345	1400
804.601	1715
804.856	2052
805.111	2336
805.366	2540
805.621	2629
805.876	2740
806.131	2813
806.386	2795
806.641	2842
806.896	2928
807.151	3015
807.406	3016
807.661	3043
807.915	3096
808.17	3167
808.425	3222
808.679	3185
808.934	3315
809.188	3287
809.443	3318
809.697	3399
809.951	3361
810.206	3407
810.46	3492
810.714	3479
810.968	3561
811.223	3491
811.477	3566
811.731	3643
811.985	3565
812.239	3556
812.493	3630
812.747	3681
813	3639
813.254	3690
813.508	3720
813.762	3744
814.015	3738
814.269	3817
814.522	3856
814.776	3887
815.03	3937
815.283	3924
815.536	4059
815.79	4122
816.043	4142
816.296	4183
816.55	4212
816.803	4264
817.056	4378
817.309	4398
817.562	4427
817.815	4504
818.068	4452
818.321	4590
818.574	4624
818.827	4703
819.079	4729
819.332	4951
819.585	4894
819.838	5016
820.09	4961
820.343	5075
820.595	5040
820.848	5066
821.1	5104
821.353	5130
821.605	5117
821.857	5117
822.11	5016
822.362	5046
822.614	5051
822.866	5127
823.118	5069
823.37	5224
823.622	5171
823.874	5167
824.126	5291
824.378	5252
824.63	5255
824.882	5276
825.134	5257
825.385	5213
825.637	5199
825.888	5130
826.14	5115
826.392	5094
826.643	5069
826.895	5088
827.146	5061
827.397	5011
827.649	5111
827.9	4963
828.151	4995
828.402	5002
828.653	5070
828.905	5025
829.156	5107
829.407	5046
829.658	5082
829.909	5082
830.159	5091
830.41	5070
830.661	5084
830.912	5003
831.162	5016
831.413	5021
831.664	5090
831.914	4988
832.165	5054
832.415	5087
832.666	5079
832.916	5082
833.167	5009
833.417	5117
833.667	5014
833.917	5043
834.168	5066
834.418	5057
834.668	5073
834.918	5005
835.168	4986
835.418	4939
835.668	4965
835.918	4991
836.167	4992
836.417	4867
836.667	4983
836.917	4966
837.166	4904
837.416	4901
837.666	4877
837.915	4899
838.165	4838
838.414	4781
838.663	4825
838.913	4827
839.162	4792
839.411	4871
839.661	4819
839.91	4807
840.159	4805
840.408	4862
840.657	4847
840.906	4921
841.155	4901
841.404	4806
841.653	4865
841.902	4818
842.15	4869
842.399	4906
842.648	4871
842.897	4873
843.145	4778
843.394	4748
843.642	4726
843.891	4760
844.139	4696
844.388	4653
844.636	4597
844.884	4644
845.133	4632
845.381	4658
845.629	4620
845.877	4654
846.125	4680
846.373	4638
846.621	4571
846.869	4661
847.117	4617
847.365	4545
847.613	4595
847.861	4573
848.108	4608
848.356	4544
848.604	4540
848.851	4555
849.099	4588
849.346	4621
849.594	4659
849.841	4705
850.089	4660
850.336	4710
850.583	4739
850.831	4805
851.078	4777
851.325	4818
851.572	4903
851.819	4766
852.066	4552
852.313	4458
852.56	4363
852.807	4344
853.054	4357
853.301	4397
853.548	4439
853.794	4556
854.041	4489
854.288	4489
854.534	4589
854.781	4519
855.028	4523
855.274	4544
855.52	4452
855.767	4425
856.013	4500
856.26	4723
856.506	4398
856.752	4400
856.998	4406
857.244	4386
857.49	4415
857.736	4488
857.982	4439
858.228	4452
858.474	4360
858.72	4333
858.966	4361
859.212	4320
859.458	4219
859.703	4164
859.949	4108
860.195	4119
860.44	4125
860.686	4119
860.931	4140
861.177	4068
861.422	4112
861.667	4049
861.913	4055
862.158	4068
862.403	4097
862.648	4121
862.893	4190
863.138	4123
863.384	4072
863.629	4123
863.873	4062
864.118	4105
864.363	4043
864.608	4104
864.853	4037
865.098	4072
865.342	4092
865.587	3973
865.832	4045
866.076	4031
866.321	4000
866.565	4007
866.81	3932
867.054	3929
867.298	3953
867.543	3903
867.787	3963
868.031	3934
868.275	3974
868.519	3944
868.764	3932
869.008	3932
869.252	3961
869.496	3961
869.739	3904
869.983	3996
870.227	3938
870.471	3925
870.715	4029
870.958	4015
871.202	3965
871.446	3992
871.689	3961
871.933	3961
872.176	3965
872.42	3965
872.663	3969
872.906	3993
873.15	3941
873.393	3914
873.636	3961
873.879	3950
874.122	3906
874.366	3780
874.609	3858
874.852	3762
875.095	3819
875.337	3710
875.58	3698
875.823	3738
876.066	3757
876.309	3759
876.551	3651
876.794	3623
877.037	3648
877.279	3590
877.522	3591
877.764	3699
878.007	3598
878.249	3631
878.491	3621
878.734	3642
878.976	3638
879.218	3565
879.46	3577
879.702	3577
879.945	3505
880.187	3434
880.429	3478
880.671	3450
880.912	3469
881.154	3459
881.396	3355
881.638	3401
881.88	3470
882.121	3413
882.363	3401
882.605	3489
882.846	3433
883.088	3428
883.329	3417
883.571	3354
883.812	3474
884.053	3541
884.295	3670
884.536	3800
884.777	3708
885.018	3731
885.259	3720
885.5	3618
885.742	3859
885.982	3615
886.223	3584
886.464	3510
886.705	3491
886.946	3446
887.187	3349
887.428	3360
887.668	3292
887.909	3247
888.15	3160
888.39	3222
888.631	3249
888.871	3201
889.111	3136
889.352	3153
889.592	3119
889.833	3064
890.073	3062
890.313	3106
890.553	2969
890.793	2980
891.033	2979
891.273	3016
891.513	2987
891.753	3053
891.993	2977
892.233	3045
892.473	3086
892.713	3017
892.952	2986
893.192	3046
893.432	3013
893.671	3092
893.911	3051
894.15	3004
894.39	2918
894.629	2965
894.869	2982
895.108	2936
895.347	2877
895.587	2940
895.826	2915
896.065	2895
896.304	2963
896.543	2969
896.782	2908
897.021	2955
897.26	2915
897.499	2990
897.738	3016
897.977	2978
898.216	2925
898.454	2903
898.693	2859
898.932	2905
899.17	2884
899.409	2881
899.647	2895
899.886	2830
900.124	2883
900.363	2845
900.601	2896
900.839	2926
901.078	2873
901.316	2955
901.554	2955
901.792	2988
902.03	2954
902.268	2961
902.506	2995
902.744	2958
902.982	2942
903.22	2825
903.458	2815
903.695	2780
903.933	2763
904.171	2721
904.409	2662
904.646	2640
904.884	2550
905.121	2589
905.359	2588
905.596	2524
905.833	2423
906.071	2446
906.308	2488
906.545	2455
906.783	2429
907.02	2428
907.257	2401
907.494	2405
907.731	2396
907.968	2422
908.205	2386
908.442	2324
908.679	2363
908.915	2338
909.152	2346
909.389	2269
909.626	2255
909.862	2248
910.099	2222
910.335	2299
910.572	2198
910.808	2245
911.045	2217
911.281	2215
911.518	2259
911.754	2212
911.99	2204
912.226	2196
912.463	2115
912.699	2130
912.935	2140
913.171	2120
913.407	2076
913.643	2142
913.879	2114
914.114	2076
914.35	2038
914.586	2051
914.822	1988
915.057	2128
915.293	1969
915.529	1964
915.764	2013
916	2041
916.235	1984
916.471	2037
916.706	1952
916.941	1964
917.177	1972
917.412	2026
917.647	2002
917.882	1950
918.117	2052
918.352	1973
918.588	2040
918.823	1943
919.057	1926
919.292	1835
919.527	1973
919.762	1905
919.997	1938
920.232	1876
920.466	1898
920.701	1760
920.935	1832
921.17	1822
921.405	1782
921.639	1832
921.873	1798
922.108	1839
922.342	1823
922.576	1776
922.811	1780
923.045	1844
923.279	1819
923.513	1709
923.747	1811
923.981	1769
924.215	1728
924.449	1753
924.683	1676
924.917	1691
925.151	1721
925.385	1791
925.618	1728
925.852	1725
926.086	1674
926.319	1725
926.553	1727
926.786	1735
927.02	1719
927.253	1762
927.486	1754
927.72	1670
927.953	1719
928.186	1687
928.42	1729
928.653	1671
928.886	1654
929.119	1708
929.352	1696
929.585	1694
929.818	1626
930.051	1689
930.284	1677
930.516	1592
930.749	1602
930.982	1629
931.215	1623
931.447	1568
931.68	1641
931.912	1624
932.145	1584
932.377	1607
932.61	1730
932.842	1561
933.074	1650
933.307	1598
933.539	1664
933.771	1671
934.003	1654
934.236	1764
934.468	1828
934.7	1792
934.932	1855
935.164	1837
935.395	1843
935.627	1797
935.859	1734
936.091	1622
936.323	1670
936.554	1669
936.786	1613
937.017	1543
937.249	1607
937.481	1550
937.712	1599
937.943	1596
938.175	1571
938.406	1583
938.637	1624
938.869	1559
939.1	1627
939.331	1586
939.562	1645
939.793	1629
940.024	1750
940.255	1891
940.486	2257
940.717	2683
940.948	2794
941.179	2521
941.409	2289
941.64	2071
941.871	1843
942.102	1709
942.332	1594
942.563	1629
942.793	1571
943.024	1503
943.254	1544
943.484	1572
943.715	1585
943.945	1550
944.175	1481
944.405	1454
944.636	1482
944.866	1549
945.096	1549
945.326	1466
945.556	1543
945.786	1548
946.016	1514
946.245	1453
946.475	1473
946.705	1469
946.935	1469
947.164	1506
947.394	1410
947.624	1448
947.853	1499
948.083	1488
948.312	1430
948.542	1400
948.771	1385
949	1414
949.23	1414
949.459	1441
949.688	1472
949.917	1426
950.146	1417
950.375	1473
950.604	1414
950.833	1474
951.062	1485
951.291	1450
951.52	1389
951.749	1415
951.978	1393
952.206	1403
952.435	1377
952.664	1421
952.892	1427
953.121	1409
953.349	1436
953.578	1424
953.806	1384
954.035	1331
954.263	1383
954.491	1317
954.719	1418
954.948	1346
955.176	1347
955.404	1278
955.632	1347
955.86	1383
956.088	1343
956.316	1372
956.544	1388
956.772	1358
956.999	1342
957.227	1422
957.455	1324
957.683	1329
957.91	1304
958.138	1285
958.365	1317
958.593	1307
958.82	1242
959.048	1333
959.275	1330
959.502	1312
959.73	1275
959.957	1326
960.184	1382
960.411	1305
960.638	1399
960.865	1290
961.092	1333
961.319	1222
961.546	1335
961.773	1353
962	1312
962.227	1344
962.454	1293
962.68	1277
962.907	1315
963.134	1249
963.36	1294
963.587	1334
963.813	1253
964.04	1295
964.266	1223
964.493	1325
964.719	1308
964.945	1293
965.171	1193
965.398	1266
965.624	1294
965.85	1227
966.076	1231
966.302	1255
966.528	1239
966.754	1267
966.98	1265
967.206	1251
967.431	1178
967.657	1265
967.883	1256
968.109	1259
968.334	1210
968.56	1209
968.785	1203
969.011	1173
969.236	1256
969.462	1187
969.687	1214
969.912	1239
970.138	1274
970.363	1189
970.588	1242
970.813	1190
971.038	1171
971.263	1208
971.488	1206
971.713	1249
971.938	1217
972.163	1135
972.388	1162
972.613	1154
972.838	1155
973.062	1163
973.287	1141
973.512	1113
973.736	1178
973.961	1118
974.185	1124
974.41	1166
974.634	1081
974.858	1105
975.083	1157
975.307	1177
975.531	1085
975.755	1071
975.98	1103
976.204	1028
976.428	1059
976.652	1056
976.876	1051
977.1	1096
977.324	1048
977.547	1086
977.771	1088
977.995	1092
978.219	1039
978.442	1148
978.666	1083
978.89	1071
979.113	1064
979.337	1089
979.56	1044
979.783	1122
980.007	1035
980.23	1058
980.453	1041
980.677	1067
980.9	1070
981.123	972
981.346	1088
981.569	1067
981.792	1077
982.015	1043
982.238	997
982.461	1036
982.684	992
982.907	989
983.129	997
983.352	1062
983.575	1035
983.797	1042
984.02	1003
984.242	999
984.465	1009
984.687	1051
984.91	1068
985.132	1047
985.354	1055
985.577	1050
985.799	1045
986.021	958
986.243	997
986.465	1016
986.687	1043
986.909	1097
987.131	1022
987.353	989
987.575	1026
987.797	990
988.019	936
988.241	1006
988.462	965
988.684	1044
988.906	1051
989.127	1064
989.349	974
989.57	992
989.792	1041
990.013	1023
990.234	1069
990.456	1087
990.677	1060
990.898	1016
991.119	1012
991.341	1033
991.562	993
991.783	1032
992.004	981
992.225	946
992.446	1003
992.667	934
992.887	1014
993.108	916
993.329	1053
993.55	986
993.77	934
993.991	934
994.212	985
994.432	982
994.653	1001
994.873	1008
995.093	900
995.314	932
995.534	1022
995.754	1019
995.975	1065
996.195	940
996.415	1010
996.635	967
996.855	997
997.075	982
997.295	963
997.515	950
997.735	994
997.955	980
998.174	966
998.394	940
998.614	988
998.834	952
999.053	1030
999.273	1005
999.492	1028
999.712	960
999.931	965
1000.151	1007
1000.37	987
1000.589	1061
1000.809	963
1001.028	1092
1001.247	1037
1001.466	958
1001.685	1057
1001.904	1018
1002.123	1000
1002.342	1019
1002.561	969
1002.78	1013
1002.999	1058
1003.218	1023
1003.436	998
1003.655	1052
1003.874	994
1004.092	1026
1004.311	1044
1004.53	1016
1004.748	1069
1004.966	1015
1005.185	1073
1005.403	1069
1005.622	1050
1005.84	1121
1006.058	1035
1006.276	1064
1006.494	1543
1006.712	1067
1006.931	1082
1007.149	1009
1007.367	1009
1007.584	1055
1007.802	1101
1008.02	1061
1008.238	1129
1008.456	1130
1008.673	1000
1008.891	1099
1009.109	1059
1009.326	1086
1009.544	1165
1009.761	1040
1009.979	1152
1010.196	1156
1010.413	1210
1010.631	1261
1010.848	1259
1011.065	1303
1011.282	1233
1011.5	1180
1011.717	1298
1011.934	1247
1012.151	1283
1012.368	1244
1012.585	1200
1012.801	1258
1013.018	1218
1013.235	1186
1013.452	1214
1013.669	1220
1013.885	1200
1014.102	1252
1014.318	1197
1014.535	1189
1014.751	1207
1014.968	1210
1015.184	1250
1015.401	1153
1015.617	1199
1015.833	1175
1016.049	1165
1016.266	1154
1016.482	1178
1016.698	1101
1016.914	1167
1017.13	1111
1017.346	1131
1017.562	1179
1017.778	1105
1017.993	1097
1018.209	1169
1018.425	1142
1018.641	1115
1018.856	1082
1019.072	1135
1019.288	1154
1019.503	1139
1019.719	1020
1019.934	1054
1020.149	1127
1020.365	1074
1020.58	1046
1020.795	1097
1021.011	1035
1021.226	1021
1021.441	1073
1021.656	969
1021.871	919
1022.086	936
1022.301	939
1022.516	924
1022.731	992
1022.946	906
1023.16	877
1023.375	865
1023.59	857
1023.804	818
1024.019	922
1024.234	805
1024.448	833
1024.663	766
1024.877	808
1025.092	808
1025.306	833
1025.52	757
1025.734	839
1025.949	757
1026.163	741
1026.377	685
1026.591	750
1026.805	680
1027.019	672
1027.233	629
1027.447	597
1027.661	690
1027.875	630
1028.088	656
1028.302	586
1028.516	593
1028.73	583
1028.943	573
1029.157	537
1029.37	514
1029.584	-2
1029.797	0
1030.011	-1
1030.224	-2
