Data from QEP037381__290__11-08-56-589.txt Node

Date: Wed Dec 21 11:08:56 EST 2022
User: dcclab
Spectrometer: QEP03738
Trigger mode: 4
Integration Time (sec): 1.000000E1
Scans to average: 1
Electric dark correction enabled: true
Nonlinearity correction enabled: false
Boxcar width: 0
XAxis mode: Wavelengths
Number of Pixels in Spectrum: 1044
>>>>>Begin Spectral Data<<<<<
784.041	11
784.3	2
784.558	-3
784.817	-2
785.075	100995
785.334	17307
785.592	8041
785.851	5553
786.109	4212
786.368	3252
786.626	2588
786.884	2179
787.143	1835
787.401	1540
787.659	1359
787.917	1151
788.175	1041
788.433	893
788.691	837
788.949	758
789.207	729
789.465	625
789.723	606
789.98	549
790.238	582
790.496	546
790.753	524
791.011	583
791.268	512
791.526	490
791.783	515
792.041	482
792.298	399
792.556	462
792.813	464
793.07	420
793.327	406
793.584	500
793.841	416
794.099	446
794.356	501
794.613	400
794.869	417
795.126	389
795.383	371
795.64	380
795.897	341
796.153	417
796.41	377
796.667	364
796.923	371
797.18	369
797.436	405
797.693	349
797.949	399
798.206	434
798.462	340
798.718	414
798.974	376
799.231	413
799.487	384
799.743	413
799.999	422
800.255	412
800.511	382
800.767	420
801.023	391
801.279	406
801.534	425
801.79	438
802.046	414
802.302	487
802.557	474
802.813	538
803.068	536
803.324	665
803.579	776
803.835	975
804.09	1272
804.345	1581
804.601	1958
804.856	2388
805.111	2726
805.366	2966
805.621	3095
805.876	3239
806.131	3276
806.386	3332
806.641	3394
806.896	3422
807.151	3560
807.406	3584
807.661	3614
807.915	3673
808.17	3801
808.425	3792
808.679	3820
808.934	3934
809.188	3945
809.443	3997
809.697	4064
809.951	4033
810.206	4123
810.46	4183
810.714	4240
810.968	4228
811.223	4215
811.477	4325
811.731	4362
811.985	4322
812.239	4304
812.493	4411
812.747	4446
813	4337
813.254	4463
813.508	4552
813.762	4443
814.015	4514
814.269	4554
814.522	4625
814.776	4672
815.03	4693
815.283	4795
815.536	4861
815.79	4976
816.043	5022
816.296	5103
816.55	5151
816.803	5203
817.056	5355
817.309	5401
817.562	5409
817.815	5556
818.068	5493
818.321	5558
818.574	5675
818.827	5779
819.079	5803
819.332	5998
819.585	6056
819.838	6134
820.09	6078
820.343	6210
820.595	6141
820.848	6295
821.1	6297
821.353	6220
821.605	6252
821.857	6301
822.11	6189
822.362	6186
822.614	6161
822.866	6279
823.118	6276
823.37	6355
823.622	6345
823.874	6396
824.126	6462
824.378	6404
824.63	6456
824.882	6457
825.134	6408
825.385	6384
825.637	6346
825.888	6323
826.14	6318
826.392	6282
826.643	6244
826.895	6280
827.146	6246
827.397	6175
827.649	6228
827.9	6183
828.151	6185
828.402	6149
828.653	6241
828.905	6225
829.156	6358
829.407	6293
829.658	6271
829.909	6369
830.159	6394
830.41	6342
830.661	6337
830.912	6271
831.162	6247
831.413	6278
831.664	6259
831.914	6272
832.165	6291
832.415	6306
832.666	6238
832.916	6322
833.167	6247
833.417	6323
833.667	6289
833.917	6297
834.168	6302
834.418	6356
834.668	6267
834.918	6220
835.168	6224
835.418	6172
835.668	6144
835.918	6173
836.167	6153
836.417	6091
836.667	6141
836.917	6155
837.166	6109
837.416	6142
837.666	6095
837.915	6072
838.165	6116
838.414	6060
838.663	6004
838.913	6116
839.162	6051
839.411	6142
839.661	6082
839.91	6175
840.159	6076
840.408	6115
840.657	6106
840.906	6173
841.155	6148
841.404	6182
841.653	6203
841.902	6114
842.15	6259
842.399	6207
842.648	6172
842.897	6166
843.145	6131
843.394	6033
843.642	6005
843.891	5979
844.139	6018
844.388	5893
844.636	5863
844.884	5908
845.133	5937
845.381	5884
845.629	5996
845.877	5881
846.125	5875
846.373	5947
846.621	5884
846.869	5832
847.117	5836
847.365	5824
847.613	5835
847.861	5841
848.108	5840
848.356	5816
848.604	5803
848.851	5889
849.099	5833
849.346	5897
849.594	5991
849.841	6021
850.089	5976
850.336	6040
850.583	6141
850.831	6127
851.078	6109
851.325	6084
851.572	6197
851.819	6128
852.066	5862
852.313	5709
852.56	5664
852.807	5595
853.054	5574
853.301	5568
853.548	5663
853.794	5785
854.041	5782
854.288	5794
854.534	5877
854.781	5822
855.028	5801
855.274	5897
855.52	5769
855.767	5742
856.013	5821
856.26	6101
856.506	5753
856.752	5779
856.998	5757
857.244	5696
857.49	5798
857.736	5790
857.982	5826
858.228	5845
858.474	5671
858.72	5667
858.966	5653
859.212	5579
859.458	5558
859.703	5506
859.949	5397
860.195	5384
860.44	5356
860.686	5337
860.931	5428
861.177	5270
861.422	5330
861.667	5232
861.913	5276
862.158	5303
862.403	5341
862.648	5377
862.893	5359
863.138	5364
863.384	5323
863.629	5344
863.873	5318
864.118	5321
864.363	5254
864.608	5351
864.853	5316
865.098	5222
865.342	5257
865.587	5259
865.832	5241
866.076	5234
866.321	5151
866.565	5199
866.81	5144
867.054	5134
867.298	5150
867.543	5148
867.787	5137
868.031	5137
868.275	5208
868.519	5160
868.764	5119
869.008	5155
869.252	5197
869.496	5208
869.739	5200
869.983	5265
870.227	5233
870.471	5269
870.715	5302
870.958	5334
871.202	5294
871.446	5333
871.689	5286
871.933	5325
872.176	5336
872.42	5321
872.663	5260
872.906	5271
873.15	5278
873.393	5260
873.636	5342
873.879	5317
874.122	5270
874.366	5114
874.609	5092
874.852	5045
875.095	5039
875.337	4981
875.58	4961
875.823	5005
876.066	4935
876.309	4957
876.551	4885
876.794	4854
877.037	4932
877.279	4841
877.522	4872
877.764	4863
878.007	4891
878.249	4870
878.491	4808
878.734	4839
878.976	4833
879.218	4766
879.46	4766
879.702	4736
879.945	4702
880.187	4638
880.429	4640
880.671	4607
880.912	4574
881.154	4604
881.396	4504
881.638	4614
881.88	4581
882.121	4574
882.363	4508
882.605	4663
882.846	4645
883.088	4633
883.329	4578
883.571	4614
883.812	4785
884.053	4859
884.295	5012
884.536	5230
884.777	5145
885.018	5188
885.259	5102
885.5	4999
885.742	5209
885.982	4999
886.223	4959
886.464	4852
886.705	4774
886.946	4713
887.187	4606
887.428	4597
887.668	4433
887.909	4391
888.15	4288
888.39	4320
888.631	4372
888.871	4282
889.111	4194
889.352	4209
889.592	4200
889.833	4130
890.073	4097
890.313	4137
890.553	4012
890.793	4029
891.033	3980
891.273	4009
891.513	3982
891.753	4049
891.993	4009
892.233	4028
892.473	4103
892.713	4094
892.952	4025
893.192	4073
893.432	4047
893.671	4120
893.911	4080
894.15	4068
894.39	3948
894.629	4010
894.869	4017
895.108	3991
895.347	3985
895.587	3996
895.826	3957
896.065	3940
896.304	3977
896.543	4009
896.782	3888
897.021	3979
897.26	3953
897.499	4046
897.738	4053
897.977	3989
898.216	3957
898.454	3946
898.693	3887
898.932	3969
899.17	3915
899.409	3904
899.647	3930
899.886	3921
900.124	3953
900.363	3911
900.601	3996
900.839	4040
901.078	4012
901.316	4059
901.554	4107
901.792	4136
902.03	4137
902.268	4157
902.506	4214
902.744	4076
902.982	4121
903.22	3956
903.458	3842
903.695	3821
903.933	3820
904.171	3676
904.409	3581
904.646	3589
904.884	3498
905.121	3510
905.359	3455
905.596	3408
905.833	3339
906.071	3338
906.308	3337
906.545	3359
906.783	3271
907.02	3272
907.257	3264
907.494	3261
907.731	3294
907.968	3300
908.205	3231
908.442	3191
908.679	3231
908.915	3178
909.152	3194
909.389	3067
909.626	3097
909.862	3065
910.099	3055
910.335	3109
910.572	3018
910.808	3054
911.045	3006
911.281	2986
911.518	3075
911.754	2972
911.99	3004
912.226	2985
912.463	2940
912.699	2936
912.935	2907
913.171	2862
913.407	2889
913.643	2854
913.879	2856
914.114	2803
914.35	2737
914.586	2794
914.822	2726
915.057	2834
915.293	2671
915.529	2669
915.764	2734
916	2754
916.235	2713
916.471	2777
916.706	2697
916.941	2654
917.177	2662
917.412	2742
917.647	2716
917.882	2675
918.117	2729
918.352	2709
918.588	2738
918.823	2672
919.057	2610
919.292	2531
919.527	2641
919.762	2584
919.997	2603
920.232	2546
920.466	2590
920.701	2482
920.935	2484
921.17	2487
921.405	2441
921.639	2495
921.873	2450
922.108	2471
922.342	2506
922.576	2412
922.811	2431
923.045	2444
923.279	2512
923.513	2347
923.747	2436
923.981	2425
924.215	2362
924.449	2361
924.683	2300
924.917	2305
925.151	2323
925.385	2397
925.618	2375
925.852	2374
926.086	2270
926.319	2368
926.553	2314
926.786	2336
927.02	2361
927.253	2382
927.486	2370
927.72	2317
927.953	2378
928.186	2322
928.42	2362
928.653	2302
928.886	2278
929.119	2300
929.352	2315
929.585	2293
929.818	2257
930.051	2247
930.284	2275
930.516	2167
930.749	2214
930.982	2261
931.215	2230
931.447	2160
931.68	2225
931.912	2198
932.145	2188
932.377	2210
932.61	2342
932.842	2152
933.074	2245
933.307	2216
933.539	2288
933.771	2346
934.003	2306
934.236	2452
934.468	2569
934.7	2503
934.932	2568
935.164	2498
935.395	2444
935.627	2386
935.859	2313
936.091	2203
936.323	2226
936.554	2204
936.786	2211
937.017	2151
937.249	2188
937.481	2116
937.712	2226
937.943	2176
938.175	2167
938.406	2222
938.637	2269
938.869	2165
939.1	2252
939.331	2272
939.562	2353
939.793	2501
940.024	2935
940.255	3801
940.486	4512
940.717	4724
940.948	4222
941.179	3642
941.409	3168
941.64	2741
941.871	2471
942.102	2272
942.332	2253
942.563	2243
942.793	2162
943.024	2101
943.254	2116
943.484	2184
943.715	2198
943.945	2147
944.175	2067
944.405	2060
944.636	2077
944.866	2116
945.096	2100
945.326	2034
945.556	2113
945.786	2117
946.016	2104
946.245	2063
946.475	2044
946.705	2025
946.935	2035
947.164	2009
947.394	1957
947.624	2033
947.853	2035
948.083	2002
948.312	1999
948.542	1930
948.771	1927
949	1941
949.23	1958
949.459	1981
949.688	1997
949.917	1990
950.146	1952
950.375	2050
950.604	1966
950.833	2027
951.062	2037
951.291	1959
951.52	1909
951.749	1964
951.978	1932
952.206	1924
952.435	1934
952.664	1996
952.892	1981
953.121	1942
953.349	1955
953.578	1952
953.806	1920
954.035	1879
954.263	1903
954.491	1849
954.719	1928
954.948	1852
955.176	1864
955.404	1798
955.632	1851
955.86	1869
956.088	1899
956.316	1890
956.544	1921
956.772	1853
956.999	1827
957.227	1914
957.455	1833
957.683	1856
957.91	1801
958.138	1806
958.365	1794
958.593	1808
958.82	1748
959.048	1835
959.275	1781
959.502	1777
959.73	1772
959.957	1780
960.184	1821
960.411	1788
960.638	1864
960.865	1787
961.092	1802
961.319	1739
961.546	1839
961.773	1807
962	1774
962.227	1827
962.454	1783
962.68	1767
962.907	1783
963.134	1745
963.36	1779
963.587	1801
963.813	1751
964.04	1746
964.266	1673
964.493	1795
964.719	1736
964.945	1758
965.171	1649
965.398	1702
965.624	1737
965.85	1653
966.076	1669
966.302	1738
966.528	1665
966.754	1680
966.98	1681
967.206	1690
967.431	1648
967.657	1725
967.883	1698
968.109	1717
968.334	1657
968.56	1607
968.785	1630
969.011	1599
969.236	1674
969.462	1606
969.687	1643
969.912	1670
970.138	1693
970.363	1603
970.588	1644
970.813	1640
971.038	1586
971.263	1641
971.488	1645
971.713	1667
971.938	1642
972.163	1556
972.388	1595
972.613	1560
972.838	1570
973.062	1564
973.287	1581
973.512	1513
973.736	1550
973.961	1543
974.185	1534
974.41	1539
974.634	1492
974.858	1503
975.083	1541
975.307	1578
975.531	1500
975.755	1439
975.98	1490
976.204	1430
976.428	1412
976.652	1435
976.876	1432
977.1	1481
977.324	1441
977.547	1473
977.771	1468
977.995	1440
978.219	1380
978.442	1516
978.666	1445
978.89	1471
979.113	1473
979.337	1441
979.56	1399
979.783	1506
980.007	1401
980.23	1441
980.453	1393
980.677	1427
980.9	1416
981.123	1326
981.346	1404
981.569	1421
981.792	1445
982.015	1410
982.238	1379
982.461	1385
982.684	1377
982.907	1344
983.129	1342
983.352	1377
983.575	1383
983.797	1373
984.02	1308
984.242	1350
984.465	1357
984.687	1394
984.91	1382
985.132	1351
985.354	1385
985.577	1412
985.799	1360
986.021	1297
986.243	1310
986.465	1313
986.687	1390
986.909	1411
987.131	1334
987.353	1311
987.575	1366
987.797	1300
988.019	1291
988.241	1320
988.462	1296
988.684	1358
988.906	1397
989.127	1395
989.349	1286
989.57	1308
989.792	1359
990.013	1375
990.234	1377
990.456	1415
990.677	1369
990.898	1318
991.119	1318
991.341	1353
991.562	1297
991.783	1321
992.004	1286
992.225	1260
992.446	1316
992.667	1214
992.887	1324
993.108	1232
993.329	1343
993.55	1257
993.77	1241
993.991	1239
994.212	1289
994.432	1283
994.653	1268
994.873	1291
995.093	1175
995.314	1211
995.534	1292
995.754	1318
995.975	1340
996.195	1219
996.415	1298
996.635	1244
996.855	1282
997.075	1250
997.295	1231
997.515	1238
997.735	1276
997.955	1291
998.174	1265
998.394	1216
998.614	1297
998.834	1236
999.053	1317
999.273	1282
999.492	1323
999.712	1250
999.931	1223
1000.151	1269
1000.37	1243
1000.589	1316
1000.809	1245
1001.028	1338
1001.247	1297
1001.466	1184
1001.685	1322
1001.904	1290
1002.123	1263
1002.342	1284
1002.561	1215
1002.78	1244
1002.999	1313
1003.218	1258
1003.436	1228
1003.655	1283
1003.874	1229
1004.092	1251
1004.311	1293
1004.53	1266
1004.748	1342
1004.966	1283
1005.185	1324
1005.403	1300
1005.622	1288
1005.84	1340
1006.058	1278
1006.276	1301
1006.494	1809
1006.712	1300
1006.931	1352
1007.149	1259
1007.367	1285
1007.584	1339
1007.802	1368
1008.02	1311
1008.238	1400
1008.456	1377
1008.673	1293
1008.891	1385
1009.109	1380
1009.326	1423
1009.544	1507
1009.761	1442
1009.979	1537
1010.196	1557
1010.413	1652
1010.631	1753
1010.848	1810
1011.065	1793
1011.282	1720
1011.5	1692
1011.717	1802
1011.934	1720
1012.151	1806
1012.368	1755
1012.585	1696
1012.801	1748
1013.018	1743
1013.235	1726
1013.452	1757
1013.669	1768
1013.885	1741
1014.102	1777
1014.318	1767
1014.535	1699
1014.751	1769
1014.968	1754
1015.184	1790
1015.401	1683
1015.617	1709
1015.833	1653
1016.049	1657
1016.266	1651
1016.482	1640
1016.698	1618
1016.914	1647
1017.13	1584
1017.346	1616
1017.562	1652
1017.778	1583
1017.993	1566
1018.209	1613
1018.425	1626
1018.641	1572
1018.856	1544
1019.072	1566
1019.288	1646
1019.503	1606
1019.719	1508
1019.934	1522
1020.149	1607
1020.365	1537
1020.58	1478
1020.795	1509
1021.011	1428
1021.226	1425
1021.441	1428
1021.656	1341
1021.871	1293
1022.086	1287
1022.301	1267
1022.516	1269
1022.731	1306
1022.946	1219
1023.16	1175
1023.375	1193
1023.59	1153
1023.804	1112
1024.019	1200
1024.234	1064
1024.448	1132
1024.663	1031
1024.877	1051
1025.092	1079
1025.306	1074
1025.52	976
1025.734	1045
1025.949	968
1026.163	959
1026.377	886
1026.591	939
1026.805	844
1027.019	858
1027.233	826
1027.447	775
1027.661	871
1027.875	820
1028.088	818
1028.302	732
1028.516	742
1028.73	745
1028.943	719
1029.157	660
1029.37	634
1029.584	-2
1029.797	-2
1030.011	-1
1030.224	-3
