Data from QEP037381__227__14-32-38-754.txt Node

Date: Fri Apr 28 14:32:38 EDT 2023
User: dcclab
Spectrometer: QEP03738
Trigger mode: 4
Integration Time (sec): 1.000000E1
Scans to average: 1
Electric dark correction enabled: true
Nonlinearity correction enabled: false
Boxcar width: 0
XAxis mode: Wavelengths
Number of Pixels in Spectrum: 1044
>>>>>Begin Spectral Data<<<<<
784.041	15
784.3	0
784.558	-2
784.817	-7
785.075	76042
785.334	15213
785.592	7889
785.851	5534
786.109	4187
786.368	3305
786.626	2646
786.884	2222
787.143	1868
787.401	1532
787.659	1373
787.917	1176
788.175	1089
788.433	955
788.691	855
788.949	802
789.207	771
789.465	676
789.723	651
789.98	597
790.238	635
790.496	600
790.753	565
791.011	618
791.268	542
791.526	537
791.783	560
792.041	547
792.298	471
792.556	528
792.813	519
793.07	490
793.327	480
793.584	540
793.841	492
794.099	507
794.356	544
794.613	454
794.869	487
795.126	460
795.383	453
795.64	462
795.897	417
796.153	475
796.41	469
796.667	460
796.923	461
797.18	465
797.436	501
797.693	464
797.949	516
798.206	525
798.462	467
798.718	532
798.974	505
799.231	550
799.487	547
799.743	551
799.999	598
800.255	600
800.511	591
800.767	671
801.023	650
801.279	706
801.534	792
801.79	859
802.046	990
802.302	1195
802.557	1459
802.813	1913
803.068	2605
803.324	3763
803.579	5371
803.835	7710
804.09	10622
804.345	13795
804.601	16971
804.856	19923
805.111	22079
805.366	23680
805.621	24530
805.876	25294
806.131	25729
806.386	26286
806.641	26683
806.896	26960
807.151	27378
807.406	27653
807.661	28207
807.915	28660
808.17	29147
808.425	29481
808.679	29759
808.934	30182
809.188	30504
809.443	30843
809.697	30901
809.951	31188
810.206	31544
810.46	31911
810.714	32045
810.968	32309
811.223	32421
811.477	32712
811.731	32864
811.985	33085
812.239	33147
812.493	33470
812.747	33511
813	33564
813.254	33641
813.508	33990
813.762	33907
814.015	34060
814.269	34379
814.522	34554
814.776	34993
815.03	35424
815.283	35770
815.536	36276
815.79	36846
816.043	37299
816.296	37717
816.55	38309
816.803	38617
817.056	39201
817.309	39482
817.562	39949
817.815	40230
818.068	40435
818.321	41059
818.574	41665
818.827	42173
819.079	42591
819.332	43257
819.585	43811
819.838	44375
820.09	44665
820.343	45143
820.595	45260
820.848	45411
821.1	45656
821.353	45487
821.605	45562
821.857	45573
822.11	45274
822.362	45066
822.614	45066
822.866	45133
823.118	45121
823.37	45262
823.622	45283
823.874	45394
824.126	45565
824.378	45485
824.63	45683
824.882	45898
825.134	45728
825.385	45597
825.637	45573
825.888	45397
826.14	45264
826.392	45288
826.643	44944
826.895	44729
827.146	44684
827.397	44547
827.649	44371
827.9	44416
828.151	44359
828.402	44641
828.653	44601
828.905	44569
829.156	44610
829.407	44617
829.658	44618
829.909	44511
830.159	44230
830.41	44062
830.661	43837
830.912	43497
831.162	43419
831.413	43281
831.664	43291
831.914	43179
832.165	43173
832.415	43251
832.666	43113
832.916	43113
833.167	43050
833.417	43026
833.667	42918
833.917	42494
834.168	42581
834.418	42268
834.668	42004
834.918	41803
835.168	41798
835.418	41582
835.668	41672
835.918	41387
836.167	41496
836.417	41170
836.667	41108
836.917	41013
837.166	40967
837.416	40952
837.666	40869
837.915	40713
838.165	40613
838.414	40389
838.663	40279
838.913	40103
839.162	39889
839.411	39910
839.661	39850
839.91	39670
840.159	39664
840.408	39832
840.657	39593
840.906	39488
841.155	39484
841.404	39466
841.653	39573
841.902	39467
842.15	39458
842.399	39560
842.648	39306
842.897	39054
843.145	38847
843.394	38769
843.642	38557
843.891	38358
844.139	38158
844.388	37806
844.636	37703
844.884	37694
845.133	37742
845.381	37394
845.629	37445
845.877	37516
846.125	37506
846.373	37192
846.621	37063
846.869	37043
847.117	36942
847.365	36507
847.613	36415
847.861	36209
848.108	36126
848.356	36019
848.604	35967
848.851	36148
849.099	36205
849.346	36270
849.594	36327
849.841	36395
850.089	36406
850.336	36306
850.583	36345
850.831	36140
851.078	35771
851.325	35857
851.572	35538
851.819	35182
852.066	34581
852.313	34416
852.56	34210
852.807	33816
853.054	33697
853.301	33681
853.548	33683
853.794	33808
854.041	33876
854.288	34053
854.534	34321
854.781	34389
855.028	34242
855.274	33997
855.52	33868
855.767	33650
856.013	33682
856.26	33644
856.506	33216
856.752	33192
856.998	33203
857.244	33114
857.49	33390
857.736	33316
857.982	33318
858.228	33178
858.474	32968
858.72	32886
858.966	32485
859.212	32188
859.458	31901
859.703	31643
859.949	31151
860.195	31054
860.44	30837
860.686	30642
860.931	30749
861.177	30548
861.422	30392
861.667	30374
861.913	30251
862.158	30541
862.403	30572
862.648	30512
862.893	30578
863.138	30518
863.384	30351
863.629	30364
863.873	30255
864.118	29978
864.363	29723
864.608	29601
864.853	29503
865.098	29374
865.342	29173
865.587	28984
865.832	29089
866.076	28986
866.321	28812
866.565	28660
866.81	28713
867.054	28536
867.298	28449
867.543	28444
867.787	28428
868.031	28251
868.275	28239
868.519	28260
868.764	28059
869.008	28123
869.252	28073
869.496	27915
869.739	27734
869.983	27802
870.227	27650
870.471	27624
870.715	27754
870.958	27731
871.202	27605
871.446	27721
871.689	27626
871.933	27686
872.176	27614
872.42	27614
872.663	27492
872.906	27405
873.15	27268
873.393	27067
873.636	26864
873.879	26632
874.122	26429
874.366	26197
874.609	25846
874.852	25954
875.095	25609
875.337	25561
875.58	25404
875.823	25452
876.066	25277
876.309	25214
876.551	25075
876.794	24917
877.037	24862
877.279	24845
877.522	24837
877.764	25017
878.007	24807
878.249	24763
878.491	24825
878.734	24841
878.976	24761
879.218	24488
879.46	24399
879.702	24133
879.945	23972
880.187	23754
880.429	23739
880.671	23439
880.912	23485
881.154	23355
881.396	23080
881.638	23203
881.88	23266
882.121	23044
882.363	23077
882.605	23059
882.846	22919
883.088	22804
883.329	22723
883.571	22709
883.812	22823
884.053	22934
884.295	23037
884.536	23279
884.777	22987
885.018	22863
885.259	22763
885.5	22655
885.742	22903
885.982	22638
886.223	22532
886.464	22413
886.705	22261
886.946	22098
887.187	21782
887.428	21728
887.668	21531
887.909	21182
888.15	21070
888.39	21034
888.631	20844
888.871	20817
889.111	20637
889.352	20448
889.592	20306
889.833	19974
890.073	19958
890.313	19926
890.553	19618
890.793	19581
891.033	19538
891.273	19373
891.513	19333
891.753	19244
891.993	19284
892.233	19247
892.473	19353
892.713	19315
892.952	19246
893.192	19235
893.432	19104
893.671	19099
893.911	18935
894.15	18897
894.39	18703
894.629	18631
894.869	18534
895.108	18374
895.347	18215
895.587	18182
895.826	18072
896.065	18107
896.304	18107
896.543	18015
896.782	17882
897.021	17881
897.26	17748
897.499	17729
897.738	17682
897.977	17595
898.216	17403
898.454	17277
898.693	17058
898.932	17088
899.17	16915
899.409	16889
899.647	16931
899.886	16759
900.124	16857
900.363	16773
900.601	16768
900.839	16818
901.078	16844
901.316	16734
901.554	16799
901.792	16877
902.03	16711
902.268	16749
902.506	16735
902.744	16532
902.982	16546
903.22	16273
903.458	16173
903.695	15964
903.933	15742
904.171	15535
904.409	15339
904.646	15176
904.884	15043
905.121	14790
905.359	14725
905.596	14678
905.833	14520
906.071	14430
906.308	14463
906.545	14453
906.783	14240
907.02	14367
907.257	14306
907.494	14344
907.731	14278
907.968	14121
908.205	14068
908.442	13954
908.679	13963
908.915	13818
909.152	13714
909.389	13506
909.626	13468
909.862	13352
910.099	13381
910.335	13304
910.572	13154
910.808	13143
911.045	13022
911.281	13014
911.518	13056
911.754	12903
911.99	12845
912.226	12721
912.463	12605
912.699	12590
912.935	12480
913.171	12378
913.407	12276
913.643	12238
913.879	12072
914.114	11989
914.35	11772
914.586	11736
914.822	11556
915.057	11577
915.293	11382
915.529	11299
915.764	11382
916	11350
916.235	11235
916.471	11266
916.706	11245
916.941	11203
917.177	11207
917.412	11192
917.647	11187
917.882	11145
918.117	11148
918.352	11067
918.588	11076
918.823	10947
919.057	10814
919.292	10688
919.527	10623
919.762	10467
919.997	10381
920.232	10189
920.466	10147
920.701	9944
920.935	10013
921.17	9957
921.405	9831
921.639	9831
921.873	9795
922.108	9689
922.342	9766
922.576	9672
922.811	9643
923.045	9665
923.279	9670
923.513	9416
923.747	9497
923.981	9408
924.215	9363
924.449	9289
924.683	9200
924.917	9160
925.151	9120
925.385	9078
925.618	9038
925.852	9041
926.086	8896
926.319	9004
926.553	8951
926.786	8909
927.02	8862
927.253	8931
927.486	9010
927.72	8788
927.953	8913
928.186	8769
928.42	8813
928.653	8737
928.886	8699
929.119	8641
929.352	8629
929.585	8565
929.818	8456
930.051	8421
930.284	8381
930.516	8226
930.749	8178
930.982	8119
931.215	8103
931.447	8008
931.68	8022
931.912	7999
932.145	7975
932.377	7969
932.61	8040
932.842	7950
933.074	7999
933.307	7855
933.539	7983
933.771	7970
934.003	7931
934.236	7987
934.468	7989
934.7	7884
934.932	7880
935.164	7831
935.395	7778
935.627	7706
935.859	7789
936.091	7617
936.323	7680
936.554	7721
936.786	7633
937.017	7569
937.249	7475
937.481	7439
937.712	7528
937.943	7491
938.175	7422
938.406	7430
938.637	7466
938.869	7350
939.1	7447
939.331	7332
939.562	7404
939.793	7364
940.024	7327
940.255	7233
940.486	7181
940.717	7123
940.948	7134
941.179	7086
941.409	7065
941.64	7061
941.871	7056
942.102	7096
942.332	7074
942.563	7135
942.793	7059
943.024	7004
943.254	7016
943.484	7079
943.715	7081
943.945	7039
944.175	6887
944.405	6918
944.636	6937
944.866	6952
945.096	6968
945.326	6890
945.556	6886
945.786	6869
946.016	6772
946.245	6767
946.475	6655
946.705	6595
946.935	6584
947.164	6645
947.394	6509
947.624	6488
947.853	6525
948.083	6466
948.312	6421
948.542	6382
948.771	6302
949	6308
949.23	6349
949.459	6366
949.688	6420
949.917	6277
950.146	6304
950.375	6355
950.604	6285
950.833	6397
951.062	6358
951.291	6252
951.52	6248
951.749	6216
951.978	6143
952.206	6166
952.435	6118
952.664	6126
952.892	6142
953.121	6068
953.349	6098
953.578	6098
953.806	6026
954.035	5968
954.263	5948
954.491	5837
954.719	5886
954.948	5797
955.176	5786
955.404	5756
955.632	5786
955.86	5739
956.088	5709
956.316	5686
956.544	5697
956.772	5635
956.999	5588
957.227	5601
957.455	5482
957.683	5515
957.91	5482
958.138	5470
958.365	5400
958.593	5366
958.82	5281
959.048	5367
959.275	5352
959.502	5316
959.73	5256
959.957	5318
960.184	5311
960.411	5267
960.638	5328
960.865	5202
961.092	5263
961.319	5207
961.546	5231
961.773	5291
962	5198
962.227	5236
962.454	5210
962.68	5117
962.907	5150
963.134	5049
963.36	5054
963.587	5041
963.813	4947
964.04	4944
964.266	4872
964.493	4904
964.719	4927
964.945	4920
965.171	4783
965.398	4834
965.624	4859
965.85	4726
966.076	4748
966.302	4741
966.528	4680
966.754	4727
966.98	4711
967.206	4661
967.431	4604
967.657	4624
967.883	4605
968.109	4612
968.334	4545
968.56	4516
968.785	4543
969.011	4520
969.236	4522
969.462	4463
969.687	4493
969.912	4489
970.138	4507
970.363	4401
970.588	4429
970.813	4387
971.038	4372
971.263	4352
971.488	4396
971.713	4370
971.938	4295
972.163	4215
972.388	4265
972.613	4239
972.838	4233
973.062	4197
973.287	4165
973.512	4122
973.736	4136
973.961	4133
974.185	4061
974.41	4085
974.634	3897
974.858	3986
975.083	3963
975.307	3971
975.531	3899
975.755	3818
975.98	3856
976.204	3764
976.428	3790
976.652	3793
976.876	3763
977.1	3775
977.324	3751
977.547	3742
977.771	3748
977.995	3738
978.219	3619
978.442	3762
978.666	3666
978.89	3704
979.113	3695
979.337	3666
979.56	3606
979.783	3699
980.007	3566
980.23	3599
980.453	3519
980.677	3568
980.9	3564
981.123	3427
981.346	3493
981.569	3491
981.792	3522
982.015	3455
982.238	3373
982.461	3418
982.684	3323
982.907	3376
983.129	3274
983.352	3346
983.575	3298
983.797	3329
984.02	3276
984.242	3234
984.465	3230
984.687	3251
984.91	3273
985.132	3210
985.354	3252
985.577	3191
985.799	3165
986.021	3100
986.243	3123
986.465	3116
986.687	3153
986.909	3193
987.131	3120
987.353	3072
987.575	3100
987.797	3074
988.019	2982
988.241	3054
988.462	2980
988.684	3042
988.906	3035
989.127	3089
989.349	2952
989.57	2947
989.792	3023
990.013	2996
990.234	3019
990.456	3031
990.677	2970
990.898	2918
991.119	2884
991.341	2925
991.562	2839
991.783	2836
992.004	2796
992.225	2754
992.446	2842
992.667	2745
992.887	2769
993.108	2693
993.329	2810
993.55	2740
993.77	2665
993.991	2674
994.212	2735
994.432	2684
994.653	2653
994.873	2665
995.093	2518
995.314	2558
995.534	2633
995.754	2631
995.975	2645
996.195	2548
996.415	2592
996.635	2569
996.855	2594
997.075	2544
997.295	2536
997.515	2512
997.735	2586
997.955	2532
998.174	2529
998.394	2465
998.614	2518
998.834	2442
999.053	2532
999.273	2499
999.492	2486
999.712	2501
999.931	2415
1000.151	2474
1000.37	2461
1000.589	2491
1000.809	2410
1001.028	2521
1001.247	2420
1001.466	2364
1001.685	2430
1001.904	2386
1002.123	2382
1002.342	2374
1002.561	2298
1002.78	2269
1002.999	2379
1003.218	2305
1003.436	2244
1003.655	2297
1003.874	2208
1004.092	2241
1004.311	2289
1004.53	2238
1004.748	2286
1004.966	2194
1005.185	2289
1005.403	2285
1005.622	2238
1005.84	2261
1006.058	2184
1006.276	2197
1006.494	2600
1006.712	2173
1006.931	2262
1007.149	2140
1007.367	2185
1007.584	2209
1007.802	2231
1008.02	2162
1008.238	2229
1008.456	2255
1008.673	2116
1008.891	2207
1009.109	2207
1009.326	2262
1009.544	2335
1009.761	2218
1009.979	2320
1010.196	2351
1010.413	2438
1010.631	2468
1010.848	2470
1011.065	2522
1011.282	2468
1011.5	2389
1011.717	2479
1011.934	2427
1012.151	2452
1012.368	2403
1012.585	2367
1012.801	2390
1013.018	2388
1013.235	2327
1013.452	2338
1013.669	2392
1013.885	2376
1014.102	2447
1014.318	2350
1014.535	2296
1014.751	2333
1014.968	2310
1015.184	2326
1015.401	2255
1015.617	2275
1015.833	2185
1016.049	2203
1016.266	2182
1016.482	2168
1016.698	2086
1016.914	2123
1017.13	2075
1017.346	2049
1017.562	2100
1017.778	2059
1017.993	2020
1018.209	2058
1018.425	2042
1018.641	2000
1018.856	1967
1019.072	1991
1019.288	2019
1019.503	1988
1019.719	1886
1019.934	1908
1020.149	1964
1020.365	1904
1020.58	1853
1020.795	1884
1021.011	1792
1021.226	1787
1021.441	1781
1021.656	1738
1021.871	1645
1022.086	1650
1022.301	1635
1022.516	1594
1022.731	1659
1022.946	1548
1023.16	1516
1023.375	1495
1023.59	1467
1023.804	1452
1024.019	1518
1024.234	1398
1024.448	1415
1024.663	1359
1024.877	1368
1025.092	1382
1025.306	1379
1025.52	1271
1025.734	1330
1025.949	1248
1026.163	1252
1026.377	1191
1026.591	1207
1026.805	1130
1027.019	1127
1027.233	1089
1027.447	1036
1027.661	1125
1027.875	1074
1028.088	1089
1028.302	984
1028.516	976
1028.73	954
1028.943	940
1029.157	871
1029.37	826
1029.584	-1
1029.797	-3
1030.011	-3
1030.224	1
