Data from QEP037381__31__11-26-05-594.txt Node

Date: Wed Dec 21 11:26:05 EST 2022
User: dcclab
Spectrometer: QEP03738
Trigger mode: 4
Integration Time (sec): 1.000000E1
Scans to average: 1
Electric dark correction enabled: true
Nonlinearity correction enabled: false
Boxcar width: 0
XAxis mode: Wavelengths
Number of Pixels in Spectrum: 1044
>>>>>Begin Spectral Data<<<<<
784.041	11
784.3	2
784.558	-3
784.817	-6
785.075	45244
785.334	9341
785.592	4901
785.851	3490
786.109	2687
786.368	2102
786.626	1729
786.884	1505
787.143	1257
787.401	1026
787.659	971
787.917	836
788.175	789
788.433	704
788.691	633
788.949	611
789.207	582
789.465	496
789.723	509
789.98	453
790.238	499
790.496	473
790.753	444
791.011	503
791.268	465
791.526	440
791.783	473
792.041	430
792.298	352
792.556	434
792.813	423
793.07	380
793.327	379
793.584	460
793.841	378
794.099	412
794.356	453
794.613	377
794.869	404
795.126	365
795.383	349
795.64	378
795.897	331
796.153	397
796.41	373
796.667	357
796.923	374
797.18	360
797.436	389
797.693	343
797.949	402
798.206	435
798.462	348
798.718	402
798.974	360
799.231	420
799.487	406
799.743	408
799.999	418
800.255	409
800.511	390
800.767	421
801.023	405
801.279	442
801.534	436
801.79	468
802.046	473
802.302	548
802.557	586
802.813	694
803.068	766
803.324	1011
803.579	1282
803.835	1677
804.09	2299
804.345	2891
804.601	3561
804.856	4276
805.111	4867
805.366	5324
805.621	5678
805.876	5879
806.131	6002
806.386	6114
806.641	6148
806.896	6338
807.151	6510
807.406	6481
807.661	6569
807.915	6714
808.17	6908
808.425	6874
808.679	6909
808.934	7102
809.188	7042
809.443	7159
809.697	7219
809.951	7238
810.206	7315
810.46	7448
810.714	7457
810.968	7505
811.223	7475
811.477	7670
811.731	7683
811.985	7667
812.239	7647
812.493	7703
812.747	7686
813	7697
813.254	7773
813.508	7874
813.762	7787
814.015	7882
814.269	7978
814.522	8045
814.776	8091
815.03	8167
815.283	8273
815.536	8357
815.79	8415
816.043	8598
816.296	8712
816.55	8708
816.803	8879
817.056	9073
817.309	9104
817.562	9134
817.815	9246
818.068	9243
818.321	9324
818.574	9393
818.827	9574
819.079	9664
819.332	9873
819.585	9966
819.838	10077
820.09	10006
820.343	10092
820.595	10059
820.848	10171
821.1	10195
821.353	10131
821.605	10121
821.857	10136
822.11	10062
822.362	10025
822.614	10023
822.866	10076
823.118	9993
823.37	10124
823.622	10095
823.874	10096
824.126	10207
824.378	10055
824.63	10226
824.882	10222
825.134	10148
825.385	10129
825.637	10052
825.888	10041
826.14	10013
826.392	9960
826.643	9907
826.895	9926
827.146	9862
827.397	9837
827.649	9826
827.9	9826
828.151	9795
828.402	9794
828.653	9872
828.905	9824
829.156	9919
829.407	9832
829.658	9905
829.909	9975
830.159	9986
830.41	9864
830.661	9873
830.912	9793
831.162	9678
831.413	9691
831.664	9767
831.914	9698
832.165	9618
832.415	9649
832.666	9693
832.916	9667
833.167	9604
833.417	9684
833.667	9559
833.917	9571
834.168	9606
834.418	9515
834.668	9479
834.918	9352
835.168	9387
835.418	9308
835.668	9378
835.918	9341
836.167	9322
836.417	9231
836.667	9237
836.917	9287
837.166	9261
837.416	9318
837.666	9247
837.915	9231
838.165	9263
838.414	9226
838.663	9135
838.913	9237
839.162	9108
839.411	9274
839.661	9117
839.91	9111
840.159	9119
840.408	9144
840.657	9128
840.906	9087
841.155	9167
841.404	9047
841.653	9122
841.902	9079
842.15	9186
842.399	9196
842.648	9216
842.897	9134
843.145	9016
843.394	8998
843.642	8847
843.891	8887
844.139	8763
844.388	8701
844.636	8586
844.884	8649
845.133	8607
845.381	8624
845.629	8698
845.877	8594
846.125	8589
846.373	8565
846.621	8523
846.869	8543
847.117	8494
847.365	8407
847.613	8459
847.861	8395
848.108	8452
848.356	8426
848.604	8385
848.851	8398
849.099	8408
849.346	8450
849.594	8577
849.841	8577
850.089	8660
850.336	8737
850.583	8818
850.831	8750
851.078	8613
851.325	8570
851.572	8575
851.819	8440
852.066	8211
852.313	8087
852.56	8001
852.807	7983
853.054	7996
853.301	7963
853.548	7978
853.794	8110
854.041	8036
854.288	8055
854.534	8187
854.781	8170
855.028	8126
855.274	8204
855.52	8127
855.767	8190
856.013	8220
856.26	8507
856.506	8046
856.752	8063
856.998	8067
857.244	8111
857.49	8172
857.736	8165
857.982	8118
858.228	8061
858.474	7930
858.72	7942
858.966	7866
859.212	7717
859.458	7694
859.703	7599
859.949	7510
860.195	7488
860.44	7541
860.686	7454
860.931	7438
861.177	7291
861.422	7368
861.667	7251
861.913	7266
862.158	7244
862.403	7244
862.648	7315
862.893	7406
863.138	7269
863.384	7303
863.629	7324
863.873	7280
864.118	7207
864.363	7177
864.608	7142
864.853	7125
865.098	7106
865.342	7069
865.587	7020
865.832	7082
866.076	7027
866.321	7032
866.565	7024
866.81	6937
867.054	6935
867.298	6906
867.543	6851
867.787	6908
868.031	6908
868.275	6892
868.519	6892
868.764	6917
869.008	6867
869.252	6950
869.496	6825
869.739	6877
869.983	6908
870.227	6907
870.471	6853
870.715	6986
870.958	6971
871.202	6964
871.446	6938
871.689	6950
871.933	6989
872.176	6940
872.42	6937
872.663	6955
872.906	6953
873.15	7105
873.393	7091
873.636	7120
873.879	6971
874.122	6880
874.366	6692
874.609	6647
874.852	6565
875.095	6595
875.337	6465
875.58	6390
875.823	6441
876.066	6421
876.309	6407
876.551	6313
876.794	6240
877.037	6318
877.279	6276
877.522	6239
877.764	6298
878.007	6247
878.249	6236
878.491	6187
878.734	6243
878.976	6192
879.218	6107
879.46	6157
879.702	6091
879.945	6042
880.187	5966
880.429	5909
880.671	5900
880.912	5898
881.154	5874
881.396	5747
881.638	5865
881.88	5824
882.121	5788
882.363	5835
882.605	5885
882.846	5855
883.088	5895
883.329	5878
883.571	5940
883.812	6165
884.053	6291
884.295	6545
884.536	6665
884.777	6541
885.018	6531
885.259	6438
885.5	6314
885.742	6493
885.982	6283
886.223	6192
886.464	6160
886.705	6000
886.946	5958
887.187	5744
887.428	5762
887.668	5589
887.909	5528
888.15	5441
888.39	5405
888.631	5416
888.871	5350
889.111	5244
889.352	5246
889.592	5139
889.833	5085
890.073	5148
890.313	5162
890.553	5065
890.793	4995
891.033	5002
891.273	4940
891.513	4956
891.753	5038
891.993	4986
892.233	5002
892.473	5046
892.713	4992
892.952	4982
893.192	4988
893.432	4922
893.671	4986
893.911	4977
894.15	4918
894.39	4831
894.629	4844
894.869	4875
895.108	4846
895.347	4817
895.587	4844
895.826	4810
896.065	4776
896.304	4837
896.543	4835
896.782	4738
897.021	4797
897.26	4807
897.499	4856
897.738	4854
897.977	4812
898.216	4777
898.454	4677
898.693	4698
898.932	4746
899.17	4660
899.409	4668
899.647	4684
899.886	4664
900.124	4654
900.363	4701
900.601	4759
900.839	4698
901.078	4802
901.316	4801
901.554	4865
901.792	4936
902.03	4892
902.268	4866
902.506	4898
902.744	4832
902.982	4817
903.22	4636
903.458	4603
903.695	4481
903.933	4422
904.171	4334
904.409	4241
904.646	4212
904.884	4131
905.121	4115
905.359	4057
905.596	4010
905.833	3947
906.071	3904
906.308	3992
906.545	3922
906.783	3897
907.02	3857
907.257	3824
907.494	3868
907.731	3866
907.968	3819
908.205	3740
908.442	3711
908.679	3734
908.915	3686
909.152	3683
909.389	3613
909.626	3597
909.862	3552
910.099	3615
910.335	3631
910.572	3522
910.808	3553
911.045	3527
911.281	3492
911.518	3535
911.754	3473
911.99	3442
912.226	3423
912.463	3386
912.699	3390
912.935	3357
913.171	3339
913.407	3281
913.643	3294
913.879	3283
914.114	3223
914.35	3224
914.586	3186
914.822	3149
915.057	3196
915.293	3093
915.529	3031
915.764	3147
916	3097
916.235	3115
916.471	3120
916.706	3040
916.941	3021
917.177	3091
917.412	3066
917.647	3042
917.882	3023
918.117	3068
918.352	3061
918.588	3064
918.823	2990
919.057	2981
919.292	2881
919.527	2958
919.762	2892
919.997	2905
920.232	2861
920.466	2865
920.701	2720
920.935	2798
921.17	2740
921.405	2727
921.639	2818
921.873	2739
922.108	2773
922.342	2760
922.576	2691
922.811	2680
923.045	2734
923.279	2741
923.513	2594
923.747	2692
923.981	2676
924.215	2606
924.449	2650
924.683	2566
924.917	2598
925.151	2557
925.385	2640
925.618	2606
925.852	2587
926.086	2526
926.319	2581
926.553	2576
926.786	2554
927.02	2540
927.253	2588
927.486	2577
927.72	2516
927.953	2579
928.186	2543
928.42	2533
928.653	2478
928.886	2480
929.119	2491
929.352	2483
929.585	2521
929.818	2414
930.051	2481
930.284	2423
930.516	2354
930.749	2361
930.982	2406
931.215	2418
931.447	2329
931.68	2342
931.912	2338
932.145	2302
932.377	2348
932.61	2458
932.842	2271
933.074	2350
933.307	2333
933.539	2418
933.771	2404
934.003	2320
934.236	2411
934.468	2395
934.7	2318
934.932	2341
935.164	2279
935.395	2285
935.627	2300
935.859	2326
936.091	2263
936.323	2340
936.554	2308
936.786	2271
937.017	2240
937.249	2279
937.481	2210
937.712	2311
937.943	2234
938.175	2251
938.406	2220
938.637	2293
938.869	2205
939.1	2257
939.331	2222
939.562	2245
939.793	2224
940.024	2280
940.255	2243
940.486	2205
940.717	2187
940.948	2182
941.179	2150
941.409	2187
941.64	2138
941.871	2161
942.102	2144
942.332	2118
942.563	2186
942.793	2182
943.024	2114
943.254	2142
943.484	2188
943.715	2188
943.945	2118
944.175	2082
944.405	2076
944.636	2084
944.866	2137
945.096	2129
945.326	2072
945.556	2119
945.786	2151
946.016	2084
946.245	2017
946.475	2067
946.705	2018
946.935	2032
947.164	2056
947.394	2008
947.624	2050
947.853	2062
948.083	2004
948.312	2017
948.542	1940
948.771	1927
949	1945
949.23	1969
949.459	1952
949.688	2028
949.917	1961
950.146	1956
950.375	1968
950.604	1918
950.833	1978
951.062	1992
951.291	1965
951.52	1880
951.749	1931
951.978	1875
952.206	1934
952.435	1867
952.664	1925
952.892	1930
953.121	1905
953.349	1924
953.578	1924
953.806	1880
954.035	1845
954.263	1870
954.491	1833
954.719	1866
954.948	1807
955.176	1845
955.404	1741
955.632	1838
955.86	1810
956.088	1815
956.316	1836
956.544	1849
956.772	1797
956.999	1762
957.227	1862
957.455	1769
957.683	1777
957.91	1732
958.138	1744
958.365	1717
958.593	1722
958.82	1660
959.048	1727
959.275	1714
959.502	1686
959.73	1695
959.957	1708
960.184	1735
960.411	1689
960.638	1735
960.865	1696
961.092	1710
961.319	1637
961.546	1714
961.773	1726
962	1669
962.227	1721
962.454	1704
962.68	1650
962.907	1677
963.134	1611
963.36	1648
963.587	1697
963.813	1625
964.04	1669
964.266	1599
964.493	1671
964.719	1655
964.945	1651
965.171	1549
965.398	1602
965.624	1645
965.85	1560
966.076	1567
966.302	1613
966.528	1574
966.754	1604
966.98	1587
967.206	1572
967.431	1495
967.657	1582
967.883	1567
968.109	1575
968.334	1535
968.56	1496
968.785	1531
969.011	1489
969.236	1543
969.462	1491
969.687	1520
969.912	1530
970.138	1559
970.363	1483
970.588	1501
970.813	1508
971.038	1481
971.263	1505
971.488	1521
971.713	1537
971.938	1526
972.163	1445
972.388	1467
972.613	1420
972.838	1466
973.062	1441
973.287	1460
973.512	1359
973.736	1447
973.961	1409
974.185	1392
974.41	1455
974.634	1355
974.858	1395
975.083	1437
975.307	1540
975.531	1389
975.755	1322
975.98	1374
976.204	1312
976.428	1304
976.652	1292
976.876	1291
977.1	1319
977.324	1279
977.547	1337
977.771	1385
977.995	1314
978.219	1287
978.442	1370
978.666	1318
978.89	1305
979.113	1332
979.337	1292
979.56	1291
979.783	1372
980.007	1265
980.23	1294
980.453	1259
980.677	1297
980.9	1277
981.123	1204
981.346	1305
981.569	1295
981.792	1329
982.015	1264
982.238	1225
982.461	1265
982.684	1217
982.907	1220
983.129	1221
983.352	1259
983.575	1236
983.797	1252
984.02	1186
984.242	1213
984.465	1222
984.687	1246
984.91	1254
985.132	1263
985.354	1268
985.577	1250
985.799	1236
986.021	1136
986.243	1188
986.465	1185
986.687	1239
986.909	1283
987.131	1227
987.353	1193
987.575	1232
987.797	1178
988.019	1128
988.241	1187
988.462	1161
988.684	1217
988.906	1222
989.127	1277
989.349	1147
989.57	1202
989.792	1227
990.013	1252
990.234	1230
990.456	1243
990.677	1224
990.898	1178
991.119	1194
991.341	1222
991.562	1160
991.783	1207
992.004	1152
992.225	1100
992.446	1179
992.667	1097
992.887	1179
993.108	1091
993.329	1205
993.55	1147
993.77	1103
993.991	1116
994.212	1151
994.432	1128
994.653	1159
994.873	1138
995.093	1026
995.314	1081
995.534	1167
995.754	1170
995.975	1187
996.195	1103
996.415	1137
996.635	1133
996.855	1150
997.075	1142
997.295	1114
997.515	1101
997.735	1190
997.955	1122
998.174	1115
998.394	1094
998.614	1154
998.834	1094
999.053	1178
999.273	1144
999.492	1208
999.712	1116
999.931	1109
1000.151	1143
1000.37	1156
1000.589	1174
1000.809	1100
1001.028	1202
1001.247	1151
1001.466	1056
1001.685	1202
1001.904	1143
1002.123	1124
1002.342	1140
1002.561	1107
1002.78	1117
1002.999	1179
1003.218	1136
1003.436	1105
1003.655	1176
1003.874	1115
1004.092	1134
1004.311	1180
1004.53	1127
1004.748	1227
1004.966	1152
1005.185	1207
1005.403	1187
1005.622	1165
1005.84	1212
1006.058	1151
1006.276	1167
1006.494	1648
1006.712	1154
1006.931	1223
1007.149	1124
1007.367	1143
1007.584	1210
1007.802	1225
1008.02	1174
1008.238	1278
1008.456	1250
1008.673	1131
1008.891	1260
1009.109	1204
1009.326	1269
1009.544	1351
1009.761	1292
1009.979	1417
1010.196	1437
1010.413	1532
1010.631	1559
1010.848	1619
1011.065	1614
1011.282	1567
1011.5	1486
1011.717	1594
1011.934	1562
1012.151	1595
1012.368	1590
1012.585	1525
1012.801	1561
1013.018	1549
1013.235	1511
1013.452	1542
1013.669	1527
1013.885	1546
1014.102	1588
1014.318	1554
1014.535	1511
1014.751	1523
1014.968	1552
1015.184	1557
1015.401	1462
1015.617	1495
1015.833	1452
1016.049	1435
1016.266	1459
1016.482	1431
1016.698	1364
1016.914	1393
1017.13	1373
1017.346	1351
1017.562	1437
1017.778	1363
1017.993	1320
1018.209	1362
1018.425	1359
1018.641	1293
1018.856	1309
1019.072	1318
1019.288	1367
1019.503	1331
1019.719	1240
1019.934	1253
1020.149	1324
1020.365	1241
1020.58	1214
1020.795	1242
1021.011	1191
1021.226	1175
1021.441	1198
1021.656	1130
1021.871	1072
1022.086	1073
1022.301	1066
1022.516	1049
1022.731	1119
1022.946	1013
1023.16	1019
1023.375	970
1023.59	952
1023.804	910
1024.019	1041
1024.234	880
1024.448	929
1024.663	870
1024.877	888
1025.092	896
1025.306	901
1025.52	806
1025.734	905
1025.949	814
1026.163	805
1026.377	742
1026.591	792
1026.805	728
1027.019	730
1027.233	696
1027.447	650
1027.661	744
1027.875	691
1028.088	691
1028.302	634
1028.516	623
1028.73	639
1028.943	625
1029.157	573
1029.37	535
1029.584	-3
1029.797	1
1030.011	-2
1030.224	0
