Data from QEP037381__59__11-30-45-595.txt Node

Date: Wed Dec 21 11:30:45 EST 2022
User: dcclab
Spectrometer: QEP03738
Trigger mode: 4
Integration Time (sec): 1.000000E1
Scans to average: 1
Electric dark correction enabled: true
Nonlinearity correction enabled: false
Boxcar width: 0
XAxis mode: Wavelengths
Number of Pixels in Spectrum: 1044
>>>>>Begin Spectral Data<<<<<
784.041	10
784.3	1
784.558	-2
784.817	-3
785.075	44455
785.334	8750
785.592	4512
785.851	3215
786.109	2492
786.368	1999
786.626	1611
786.884	1384
787.143	1174
787.401	980
787.659	930
787.917	795
788.175	741
788.433	668
788.691	619
788.949	591
789.207	574
789.465	501
789.723	491
789.98	441
790.238	510
790.496	462
790.753	445
791.011	517
791.268	441
791.526	439
791.783	460
792.041	452
792.298	365
792.556	431
792.813	426
793.07	403
793.327	400
793.584	480
793.841	386
794.099	406
794.356	481
794.613	384
794.869	421
795.126	381
795.383	369
795.64	393
795.897	362
796.153	407
796.41	378
796.667	374
796.923	389
797.18	372
797.436	415
797.693	371
797.949	420
798.206	439
798.462	355
798.718	421
798.974	394
799.231	453
799.487	431
799.743	432
799.999	458
800.255	458
800.511	431
800.767	483
801.023	469
801.279	486
801.534	505
801.79	550
802.046	546
802.302	664
802.557	732
802.813	885
803.068	1024
803.324	1400
803.579	1871
803.835	2554
804.09	3570
804.345	4673
804.601	5930
804.856	7279
805.111	8451
805.366	9321
805.621	10047
805.876	10486
806.131	10833
806.386	10964
806.641	11239
806.896	11441
807.151	11695
807.406	11869
807.661	12070
807.915	12157
808.17	12459
808.425	12612
808.679	12649
808.934	12926
809.188	12991
809.443	13112
809.697	13267
809.951	13371
810.206	13578
810.46	13639
810.714	13787
810.968	13834
811.223	13989
811.477	14109
811.731	14308
811.985	14261
812.239	14362
812.493	14485
812.747	14609
813	14528
813.254	14622
813.508	14686
813.762	14810
814.015	14878
814.269	14951
814.522	15153
814.776	15281
815.03	15493
815.283	15727
815.536	16026
815.79	16148
816.043	16437
816.296	16689
816.55	16966
816.803	17168
817.056	17370
817.309	17448
817.562	17712
817.815	17882
818.068	18027
818.321	18229
818.574	18458
818.827	18700
819.079	18851
819.332	19263
819.585	19432
819.838	19711
820.09	19856
820.343	20062
820.595	20055
820.848	20256
821.1	20255
821.353	20319
821.605	20281
821.857	20258
822.11	20181
822.362	20036
822.614	20083
822.866	20151
823.118	20164
823.37	20182
823.622	20196
823.874	20258
824.126	20335
824.378	20371
824.63	20430
824.882	20461
825.134	20482
825.385	20601
825.637	20411
825.888	20392
826.14	20234
826.392	20310
826.643	20106
826.895	20224
827.146	20046
827.397	20088
827.649	20228
827.9	20042
828.151	20116
828.402	20122
828.653	20160
828.905	20323
829.156	20307
829.407	20260
829.658	20236
829.909	20356
830.159	20351
830.41	20243
830.661	19993
830.912	19965
831.162	19778
831.413	19723
831.664	19840
831.914	19784
832.165	19870
832.415	19840
832.666	19789
832.916	19886
833.167	19867
833.417	19785
833.667	19758
833.917	19769
834.168	19756
834.418	19614
834.668	19576
834.918	19520
835.168	19407
835.418	19370
835.668	19329
835.918	19404
836.167	19246
836.417	19256
836.667	19221
836.917	19253
837.166	19173
837.416	19205
837.666	19173
837.915	19076
838.165	19137
838.414	18994
838.663	18862
838.913	18994
839.162	18909
839.411	19049
839.661	18852
839.91	18929
840.159	18755
840.408	18767
840.657	18817
840.906	18744
841.155	18842
841.404	18813
841.653	18873
841.902	18818
842.15	18943
842.399	19063
842.648	18887
842.897	18866
843.145	18720
843.394	18573
843.642	18485
843.891	18443
844.139	18326
844.388	18240
844.636	18089
844.884	18042
845.133	18129
845.381	18013
845.629	18047
845.877	18037
846.125	18060
846.373	17919
846.621	17951
846.869	17906
847.117	17802
847.365	17714
847.613	17652
847.861	17587
848.108	17510
848.356	17610
848.604	17583
848.851	17457
849.099	17519
849.346	17576
849.594	17770
849.841	17983
850.089	17948
850.336	18060
850.583	18164
850.831	18055
851.078	17903
851.325	17723
851.572	17678
851.819	17530
852.066	17161
852.313	17012
852.56	16859
852.807	16734
853.054	16679
853.301	16754
853.548	16744
853.794	16776
854.041	16926
854.288	16884
854.534	17158
854.781	17060
855.028	16949
855.274	17014
855.52	16899
855.767	16840
856.013	16810
856.26	17027
856.506	16724
856.752	16635
856.998	16687
857.244	16731
857.49	16872
857.736	16820
857.982	16835
858.228	16834
858.474	16692
858.72	16576
858.966	16432
859.212	16276
859.458	16130
859.703	16008
859.949	15797
860.195	15801
860.44	15692
860.686	15574
860.931	15669
861.177	15486
861.422	15461
861.667	15367
861.913	15393
862.158	15435
862.403	15631
862.648	15472
862.893	15522
863.138	15496
863.384	15490
863.629	15547
863.873	15370
864.118	15467
864.363	15232
864.608	15301
864.853	15226
865.098	15090
865.342	15162
865.587	15010
865.832	15052
866.076	14981
866.321	14966
866.565	14940
866.81	14829
867.054	14867
867.298	14798
867.543	14803
867.787	14741
868.031	14706
868.275	14735
868.519	14576
868.764	14672
869.008	14583
869.252	14632
869.496	14505
869.739	14562
869.983	14535
870.227	14555
870.471	14465
870.715	14515
870.958	14609
871.202	14546
871.446	14564
871.689	14623
871.933	14636
872.176	14552
872.42	14616
872.663	14525
872.906	14519
873.15	14475
873.393	14349
873.636	14375
873.879	14279
874.122	14030
874.366	13880
874.609	13896
874.852	13769
875.095	13711
875.337	13607
875.58	13457
875.823	13461
876.066	13489
876.309	13489
876.551	13367
876.794	13253
877.037	13269
877.279	13275
877.522	13232
877.764	13385
878.007	13271
878.249	13255
878.491	13226
878.734	13216
878.976	13205
879.218	12999
879.46	13106
879.702	13052
879.945	12897
880.187	12752
880.429	12764
880.671	12670
880.912	12609
881.154	12536
881.396	12535
881.638	12579
881.88	12514
882.121	12447
882.363	12472
882.605	12514
882.846	12453
883.088	12447
883.329	12355
883.571	12295
883.812	12479
884.053	12591
884.295	12777
884.536	12940
884.777	12754
885.018	12710
885.259	12593
885.5	12478
885.742	12730
885.982	12615
886.223	12471
886.464	12412
886.705	12278
886.946	12150
887.187	12072
887.428	12020
887.668	11887
887.909	11718
888.15	11590
888.39	11598
888.631	11547
888.871	11431
889.111	11399
889.352	11270
889.592	11153
889.833	11008
890.073	11059
890.313	11059
890.553	10868
890.793	10853
891.033	10770
891.273	10730
891.513	10769
891.753	10789
891.993	10690
892.233	10703
892.473	10748
892.713	10655
892.952	10685
893.192	10794
893.432	10705
893.671	10765
893.911	10675
894.15	10601
894.39	10508
894.629	10437
894.869	10521
895.108	10298
895.347	10335
895.587	10328
895.826	10275
896.065	10229
896.304	10294
896.543	10262
896.782	10140
897.021	10193
897.26	10178
897.499	10205
897.738	10204
897.977	10084
898.216	9980
898.454	9944
898.693	9843
898.932	9813
899.17	9808
899.409	9798
899.647	9723
899.886	9766
900.124	9784
900.363	9756
900.601	9760
900.839	9775
901.078	9807
901.316	9892
901.554	9903
901.792	9875
902.03	9805
902.268	9790
902.506	9849
902.744	9711
902.982	9724
903.22	9479
903.458	9392
903.695	9295
903.933	9237
904.171	9085
904.409	8982
904.646	8886
904.884	8693
905.121	8627
905.359	8573
905.596	8502
905.833	8449
906.071	8374
906.308	8375
906.545	8354
906.783	8312
907.02	8264
907.257	8216
907.494	8248
907.731	8241
907.968	8227
908.205	8162
908.442	8096
908.679	8043
908.915	7931
909.152	7970
909.389	7776
909.626	7787
909.862	7780
910.099	7731
910.335	7756
910.572	7628
910.808	7635
911.045	7616
911.281	7588
911.518	7530
911.754	7457
911.99	7453
912.226	7350
912.463	7388
912.699	7330
912.935	7259
913.171	7202
913.407	7102
913.643	7117
913.879	7072
914.114	6986
914.35	6902
914.586	6861
914.822	6781
915.057	6804
915.293	6637
915.529	6638
915.764	6662
916	6669
916.235	6634
916.471	6676
916.706	6541
916.941	6562
917.177	6578
917.412	6561
917.647	6641
917.882	6510
918.117	6582
918.352	6540
918.588	6532
918.823	6411
919.057	6350
919.292	6213
919.527	6367
919.762	6116
919.997	6240
920.232	6082
920.466	6077
920.701	5952
920.935	5981
921.17	5973
921.405	5831
921.639	5924
921.873	5828
922.108	5856
922.342	5798
922.576	5784
922.811	5792
923.045	5777
923.279	5729
923.513	5624
923.747	5673
923.981	5722
924.215	5579
924.449	5584
924.683	5518
924.917	5524
925.151	5436
925.385	5463
925.618	5454
925.852	5466
926.086	5350
926.319	5410
926.553	5353
926.786	5411
927.02	5416
927.253	5460
927.486	5441
927.72	5348
927.953	5352
928.186	5318
928.42	5361
928.653	5243
928.886	5275
929.119	5275
929.352	5244
929.585	5227
929.818	5146
930.051	5152
930.284	5089
930.516	5007
930.749	4977
930.982	5031
931.215	5021
931.447	4882
931.68	4927
931.912	4892
932.145	4847
932.377	4919
932.61	5044
932.842	4841
933.074	4947
933.307	4880
933.539	4971
933.771	4908
934.003	4886
934.236	4949
934.468	4936
934.7	4843
934.932	4854
935.164	4819
935.395	4796
935.627	4820
935.859	4816
936.091	4716
936.323	4776
936.554	4771
936.786	4693
937.017	4617
937.249	4700
937.481	4599
937.712	4672
937.943	4693
938.175	4597
938.406	4617
938.637	4731
938.869	4582
939.1	4631
939.331	4542
939.562	4620
939.793	4617
940.024	4570
940.255	4578
940.486	4461
940.717	4509
940.948	4451
941.179	4410
941.409	4464
941.64	4403
941.871	4408
942.102	4411
942.332	4388
942.563	4439
942.793	4438
943.024	4387
943.254	4430
943.484	4426
943.715	4404
943.945	4408
944.175	4334
944.405	4321
944.636	4346
944.866	4405
945.096	4372
945.326	4285
945.556	4425
945.786	4356
946.016	4300
946.245	4223
946.475	4231
946.705	4188
946.935	4227
947.164	4187
947.394	4115
947.624	4119
947.853	4125
948.083	4110
948.312	4051
948.542	4007
948.771	3980
949	3988
949.23	3952
949.459	4004
949.688	4061
949.917	3965
950.146	4000
950.375	4076
950.604	3931
950.833	4032
951.062	4023
951.291	3966
951.52	3897
951.749	3947
951.978	3889
952.206	3880
952.435	3841
952.664	3938
952.892	3895
953.121	3835
953.349	3878
953.578	3815
953.806	3835
954.035	3728
954.263	3826
954.491	3739
954.719	3779
954.948	3709
955.176	3675
955.404	3609
955.632	3679
955.86	3659
956.088	3638
956.316	3673
956.544	3612
956.772	3569
956.999	3573
957.227	3589
957.455	3509
957.683	3565
957.91	3519
958.138	3463
958.365	3492
958.593	3483
958.82	3451
959.048	3440
959.275	3408
959.502	3374
959.73	3394
959.957	3395
960.184	3421
960.411	3337
960.638	3454
960.865	3386
961.092	3400
961.319	3320
961.546	3408
961.773	3403
962	3359
962.227	3396
962.454	3359
962.68	3322
962.907	3335
963.134	3239
963.36	3287
963.587	3290
963.813	3195
964.04	3230
964.266	3174
964.493	3274
964.719	3231
964.945	3175
965.171	3114
965.398	3158
965.624	3127
965.85	3097
966.076	3045
966.302	3083
966.528	3028
966.754	3091
966.98	3050
967.206	3058
967.431	2989
967.657	3073
967.883	3051
968.109	3064
968.334	2930
968.56	2984
968.785	2956
969.011	2956
969.236	2993
969.462	2939
969.687	2953
969.912	2983
970.138	2976
970.363	2870
970.588	2913
970.813	2910
971.038	2838
971.263	2929
971.488	2867
971.713	2874
971.938	2878
972.163	2766
972.388	2833
972.613	2757
972.838	2813
973.062	2755
973.287	2796
973.512	2680
973.736	2751
973.961	2722
974.185	2688
974.41	2730
974.634	2644
974.858	2642
975.083	2660
975.307	2725
975.531	2628
975.755	2569
975.98	2585
976.204	2513
976.428	2524
976.652	2501
976.876	2509
977.1	2516
977.324	2505
977.547	2533
977.771	2555
977.995	2480
978.219	2425
978.442	2533
978.666	2476
978.89	2472
979.113	2446
979.337	2417
979.56	2435
979.783	2516
980.007	2427
980.23	2402
980.453	2386
980.677	2398
980.9	2418
981.123	2300
981.346	2353
981.569	2339
981.792	2369
982.015	2341
982.238	2294
982.461	2313
982.684	2267
982.907	2264
983.129	2227
983.352	2257
983.575	2252
983.797	2247
984.02	2227
984.242	2196
984.465	2218
984.687	2227
984.91	2241
985.132	2202
985.354	2243
985.577	2212
985.799	2150
986.021	2100
986.243	2106
986.465	2170
986.687	2159
986.909	2210
987.131	2125
987.353	2106
987.575	2138
987.797	2140
988.019	2024
988.241	2081
988.462	2068
988.684	2117
988.906	2142
989.127	2108
989.349	2038
989.57	2057
989.792	2078
990.013	2074
990.234	2089
990.456	2096
990.677	2069
990.898	2014
991.119	2031
991.341	2051
991.562	1986
991.783	2008
992.004	1951
992.225	1928
992.446	1997
992.667	1888
992.887	1968
993.108	1872
993.329	2019
993.55	1913
993.77	1868
993.991	1862
994.212	1906
994.432	1897
994.653	1899
994.873	1889
995.093	1782
995.314	1801
995.534	1877
995.754	1920
995.975	1916
996.195	1802
996.415	1860
996.635	1816
996.855	1843
997.075	1824
997.295	1790
997.515	1787
997.735	1847
997.955	1807
998.174	1794
998.394	1745
998.614	1817
998.834	1756
999.053	1823
999.273	1786
999.492	1830
999.712	1752
999.931	1743
1000.151	1774
1000.37	1736
1000.589	1807
1000.809	1726
1001.028	1853
1001.247	1771
1001.466	1672
1001.685	1800
1001.904	1742
1002.123	1720
1002.342	1709
1002.561	1688
1002.78	1737
1002.999	1759
1003.218	1716
1003.436	1662
1003.655	1731
1003.874	1649
1004.092	1681
1004.311	1698
1004.53	1690
1004.748	1732
1004.966	1668
1005.185	1690
1005.403	1695
1005.622	1699
1005.84	1734
1006.058	1656
1006.276	1682
1006.494	2167
1006.712	1685
1006.931	1706
1007.149	1625
1007.367	1654
1007.584	1669
1007.802	1714
1008.02	1644
1008.238	1739
1008.456	1738
1008.673	1628
1008.891	1729
1009.109	1659
1009.326	1736
1009.544	1812
1009.761	1701
1009.979	1812
1010.196	1852
1010.413	1890
1010.631	1958
1010.848	1973
1011.065	1982
1011.282	1934
1011.5	1860
1011.717	1952
1011.934	1919
1012.151	1884
1012.368	1892
1012.585	1864
1012.801	1915
1013.018	1870
1013.235	1843
1013.452	1834
1013.669	1855
1013.885	1856
1014.102	1906
1014.318	1846
1014.535	1803
1014.751	1830
1014.968	1834
1015.184	1842
1015.401	1749
1015.617	1779
1015.833	1760
1016.049	1750
1016.266	1709
1016.482	1711
1016.698	1632
1016.914	1714
1017.13	1662
1017.346	1626
1017.562	1689
1017.778	1629
1017.993	1598
1018.209	1630
1018.425	1601
1018.641	1582
1018.856	1560
1019.072	1591
1019.288	1628
1019.503	1582
1019.719	1509
1019.934	1502
1020.149	1613
1020.365	1544
1020.58	1481
1020.795	1545
1021.011	1444
1021.226	1434
1021.441	1476
1021.656	1379
1021.871	1337
1022.086	1296
1022.301	1307
1022.516	1329
1022.731	1371
1022.946	1271
1023.16	1253
1023.375	1221
1023.59	1201
1023.804	1166
1024.019	1260
1024.234	1151
1024.448	1165
1024.663	1092
1024.877	1092
1025.092	1133
1025.306	1131
1025.52	1024
1025.734	1110
1025.949	1041
1026.163	1001
1026.377	937
1026.591	993
1026.805	934
1027.019	908
1027.233	886
1027.447	827
1027.661	931
1027.875	870
1028.088	861
1028.302	803
1028.516	792
1028.73	778
1028.943	778
1029.157	707
1029.37	672
1029.584	-2
1029.797	2
1030.011	-5
1030.224	-1
