Data from QEP037381__85__11-35-05-596.txt Node

Date: Wed Dec 21 11:35:05 EST 2022
User: dcclab
Spectrometer: QEP03738
Trigger mode: 4
Integration Time (sec): 1.000000E1
Scans to average: 1
Electric dark correction enabled: true
Nonlinearity correction enabled: false
Boxcar width: 0
XAxis mode: Wavelengths
Number of Pixels in Spectrum: 1044
>>>>>Begin Spectral Data<<<<<
784.041	13
784.3	1
784.558	-4
784.817	-4
785.075	41618
785.334	8319
785.592	4357
785.851	3057
786.109	2389
786.368	1924
786.626	1554
786.884	1358
787.143	1134
787.401	914
787.659	878
787.917	786
788.175	731
788.433	644
788.691	592
788.949	540
789.207	539
789.465	458
789.723	475
789.98	421
790.238	487
790.496	474
790.753	431
791.011	497
791.268	435
791.526	407
791.783	447
792.041	414
792.298	343
792.556	412
792.813	399
793.07	387
793.327	377
793.584	449
793.841	380
794.099	392
794.356	458
794.613	365
794.869	400
795.126	361
795.383	349
795.64	375
795.897	327
796.153	376
796.41	366
796.667	347
796.923	364
797.18	352
797.436	370
797.693	338
797.949	397
798.206	427
798.462	334
798.718	383
798.974	370
799.231	397
799.487	385
799.743	393
799.999	418
800.255	402
800.511	383
800.767	429
801.023	386
801.279	417
801.534	434
801.79	465
802.046	458
802.302	536
802.557	572
802.813	652
803.068	727
803.324	943
803.579	1188
803.835	1560
804.09	2076
804.345	2618
804.601	3217
804.856	3876
805.111	4458
805.366	4899
805.621	5193
805.876	5389
806.131	5534
806.386	5600
806.641	5632
806.896	5781
807.151	5937
807.406	5968
807.661	6102
807.915	6225
808.17	6219
808.425	6355
808.679	6341
808.934	6495
809.188	6573
809.443	6667
809.697	6761
809.951	6700
810.206	6822
810.46	6916
810.714	6912
810.968	6981
811.223	6948
811.477	7103
811.731	7151
811.985	7053
812.239	7103
812.493	7225
812.747	7199
813	7155
813.254	7291
813.508	7254
813.762	7295
814.015	7323
814.269	7385
814.522	7484
814.776	7385
815.03	7565
815.283	7666
815.536	7791
815.79	7943
816.043	8058
816.296	8147
816.55	8154
816.803	8250
817.056	8500
817.309	8497
817.562	8555
817.815	8714
818.068	8693
818.321	8742
818.574	8895
818.827	9031
819.079	9113
819.332	9329
819.585	9473
819.838	9542
820.09	9443
820.343	9550
820.595	9479
820.848	9647
821.1	9606
821.353	9671
821.605	9579
821.857	9571
822.11	9474
822.362	9471
822.614	9520
822.866	9513
823.118	9455
823.37	9556
823.622	9501
823.874	9558
824.126	9671
824.378	9545
824.63	9546
824.882	9655
825.134	9536
825.385	9620
825.637	9557
825.888	9465
826.14	9504
826.392	9453
826.643	9431
826.895	9472
827.146	9334
827.397	9295
827.649	9397
827.9	9258
828.151	9255
828.402	9296
828.653	9339
828.905	9405
829.156	9366
829.407	9327
829.658	9419
829.909	9514
830.159	9465
830.41	9444
830.661	9362
830.912	9321
831.162	9252
831.413	9200
831.664	9224
831.914	9173
832.165	9161
832.415	9163
832.666	9180
832.916	9193
833.167	9164
833.417	9220
833.667	9159
833.917	9150
834.168	9130
834.418	9071
834.668	9025
834.918	8927
835.168	8955
835.418	8830
835.668	8860
835.918	8828
836.167	8805
836.417	8742
836.667	8802
836.917	8813
837.166	8742
837.416	8849
837.666	8810
837.915	8735
838.165	8754
838.414	8663
838.663	8667
838.913	8761
839.162	8675
839.411	8733
839.661	8621
839.91	8666
840.159	8683
840.408	8714
840.657	8705
840.906	8726
841.155	8761
841.404	8691
841.653	8720
841.902	8704
842.15	8712
842.399	8778
842.648	8738
842.897	8647
843.145	8602
843.394	8530
843.642	8448
843.891	8430
844.139	8370
844.388	8266
844.636	8208
844.884	8302
845.133	8176
845.381	8177
845.629	8295
845.877	8178
846.125	8141
846.373	8239
846.621	8136
846.869	8145
847.117	8105
847.365	8103
847.613	8032
847.861	8058
848.108	8116
848.356	8064
848.604	8000
848.851	8058
849.099	8038
849.346	7966
849.594	8133
849.841	8183
850.089	8285
850.336	8312
850.583	8352
850.831	8343
851.078	8245
851.325	8221
851.572	8203
851.819	8022
852.066	7902
852.313	7750
852.56	7609
852.807	7616
853.054	7559
853.301	7593
853.548	7639
853.794	7766
854.041	7767
854.288	7714
854.534	7850
854.781	7790
855.028	7766
855.274	7830
855.52	7761
855.767	7799
856.013	7883
856.26	8066
856.506	7679
856.752	7727
856.998	7715
857.244	7690
857.49	7787
857.736	7777
857.982	7738
858.228	7720
858.474	7621
858.72	7567
858.966	7503
859.212	7406
859.458	7277
859.703	7250
859.949	7162
860.195	7162
860.44	7142
860.686	7107
860.931	7190
861.177	7044
861.422	6974
861.667	6871
861.913	6968
862.158	6905
862.403	6951
862.648	6964
862.893	7029
863.138	6964
863.384	6861
863.629	6913
863.873	6922
864.118	6916
864.363	6799
864.608	6919
864.853	6830
865.098	6732
865.342	6780
865.587	6728
865.832	6805
866.076	6772
866.321	6678
866.565	6709
866.81	6629
867.054	6696
867.298	6581
867.543	6620
867.787	6642
868.031	6612
868.275	6583
868.519	6605
868.764	6578
869.008	6588
869.252	6565
869.496	6587
869.739	6600
869.983	6634
870.227	6652
870.471	6567
870.715	6646
870.958	6758
871.202	6716
871.446	6675
871.689	6691
871.933	6705
872.176	6667
872.42	6703
872.663	6671
872.906	6731
873.15	6732
873.393	6681
873.636	6741
873.879	6659
874.122	6585
874.366	6400
874.609	6457
874.852	6331
875.095	6242
875.337	6214
875.58	6091
875.823	6187
876.066	6148
876.309	6114
876.551	6032
876.794	6034
877.037	6038
877.279	6004
877.522	5935
877.764	5996
878.007	5958
878.249	5976
878.491	5919
878.734	5965
878.976	5924
879.218	5847
879.46	5892
879.702	5795
879.945	5762
880.187	5663
880.429	5657
880.671	5651
880.912	5627
881.154	5599
881.396	5536
881.638	5586
881.88	5607
882.121	5585
882.363	5538
882.605	5602
882.846	5580
883.088	5666
883.329	5558
883.571	5687
883.812	5813
884.053	6018
884.295	6164
884.536	6341
884.777	6184
885.018	6190
885.259	6142
885.5	5984
885.742	6176
885.982	5988
886.223	5934
886.464	5828
886.705	5736
886.946	5684
887.187	5479
887.428	5503
887.668	5352
887.909	5219
888.15	5137
888.39	5141
888.631	5131
888.871	5113
889.111	5078
889.352	4975
889.592	4935
889.833	4860
890.073	4865
890.313	4911
890.553	4756
890.793	4761
891.033	4707
891.273	4699
891.513	4741
891.753	4733
891.993	4732
892.233	4699
892.473	4843
892.713	4717
892.952	4746
893.192	4716
893.432	4687
893.671	4765
893.911	4701
894.15	4699
894.39	4613
894.629	4652
894.869	4640
895.108	4610
895.347	4558
895.587	4624
895.826	4570
896.065	4564
896.304	4558
896.543	4567
896.782	4522
897.021	4554
897.26	4556
897.499	4576
897.738	4615
897.977	4550
898.216	4486
898.454	4467
898.693	4462
898.932	4522
899.17	4462
899.409	4479
899.647	4461
899.886	4471
900.124	4515
900.363	4468
900.601	4487
900.839	4536
901.078	4535
901.316	4611
901.554	4651
901.792	4673
902.03	4643
902.268	4718
902.506	4703
902.744	4565
902.982	4585
903.22	4434
903.458	4357
903.695	4318
903.933	4234
904.171	4098
904.409	4053
904.646	4007
904.884	3924
905.121	3920
905.359	3873
905.596	3838
905.833	3741
906.071	3749
906.308	3768
906.545	3722
906.783	3658
907.02	3699
907.257	3616
907.494	3613
907.731	3611
907.968	3636
908.205	3545
908.442	3530
908.679	3549
908.915	3508
909.152	3478
909.389	3447
909.626	3434
909.862	3369
910.099	3405
910.335	3406
910.572	3311
910.808	3373
911.045	3325
911.281	3305
911.518	3347
911.754	3276
911.99	3283
912.226	3263
912.463	3208
912.699	3183
912.935	3222
913.171	3139
913.407	3128
913.643	3191
913.879	3142
914.114	3040
914.35	3024
914.586	3030
914.822	2941
915.057	3049
915.293	2915
915.529	2914
915.764	2970
916	2937
916.235	2941
916.471	2963
916.706	2854
916.941	2931
917.177	2909
917.412	2930
917.647	2908
917.882	2881
918.117	2919
918.352	2865
918.588	2918
918.823	2841
919.057	2824
919.292	2732
919.527	2837
919.762	2756
919.997	2768
920.232	2731
920.466	2733
920.701	2631
920.935	2659
921.17	2627
921.405	2601
921.639	2665
921.873	2598
922.108	2652
922.342	2650
922.576	2555
922.811	2565
923.045	2588
923.279	2607
923.513	2453
923.747	2560
923.981	2527
924.215	2477
924.449	2484
924.683	2422
924.917	2476
925.151	2431
925.385	2531
925.618	2408
925.852	2449
926.086	2390
926.319	2413
926.553	2458
926.786	2446
927.02	2407
927.253	2490
927.486	2465
927.72	2345
927.953	2436
928.186	2388
928.42	2452
928.653	2355
928.886	2369
929.119	2395
929.352	2355
929.585	2361
929.818	2296
930.051	2361
930.284	2334
930.516	2241
930.749	2236
930.982	2325
931.215	2279
931.447	2192
931.68	2223
931.912	2204
932.145	2205
932.377	2242
932.61	2354
932.842	2168
933.074	2233
933.307	2186
933.539	2306
933.771	2257
934.003	2198
934.236	2281
934.468	2272
934.7	2186
934.932	2253
935.164	2165
935.395	2139
935.627	2191
935.859	2169
936.091	2171
936.323	2181
936.554	2204
936.786	2154
937.017	2089
937.249	2178
937.481	2085
937.712	2151
937.943	2120
938.175	2137
938.406	2132
938.637	2189
938.869	2075
939.1	2113
939.331	2125
939.562	2142
939.793	2103
940.024	2132
940.255	2127
940.486	2082
940.717	2055
940.948	2099
941.179	2041
941.409	2056
941.64	2027
941.871	2040
942.102	2024
942.332	2007
942.563	2074
942.793	2063
943.024	1993
943.254	2080
943.484	2077
943.715	2075
943.945	2006
944.175	1960
944.405	1983
944.636	1971
944.866	1987
945.096	2028
945.326	1926
945.556	2043
945.786	2057
946.016	1976
946.245	1918
946.475	1960
946.705	1949
946.935	1950
947.164	1964
947.394	1886
947.624	1923
947.853	1966
948.083	1918
948.312	1885
948.542	1834
948.771	1833
949	1823
949.23	1876
949.459	1874
949.688	1932
949.917	1854
950.146	1895
950.375	1926
950.604	1832
950.833	1924
951.062	1908
951.291	1865
951.52	1816
951.749	1818
951.978	1785
952.206	1810
952.435	1807
952.664	1821
952.892	1810
953.121	1806
953.349	1851
953.578	1846
953.806	1778
954.035	1734
954.263	1769
954.491	1719
954.719	1758
954.948	1750
955.176	1726
955.404	1689
955.632	1741
955.86	1754
956.088	1755
956.316	1736
956.544	1771
956.772	1711
956.999	1654
957.227	1754
957.455	1680
957.683	1691
957.91	1642
958.138	1635
958.365	1663
958.593	1647
958.82	1564
959.048	1679
959.275	1636
959.502	1618
959.73	1602
959.957	1642
960.184	1623
960.411	1584
960.638	1673
960.865	1577
961.092	1656
961.319	1528
961.546	1657
961.773	1652
962	1610
962.227	1669
962.454	1576
962.68	1593
962.907	1609
963.134	1539
963.36	1597
963.587	1626
963.813	1519
964.04	1609
964.266	1526
964.493	1600
964.719	1594
964.945	1601
965.171	1504
965.398	1571
965.624	1566
965.85	1480
966.076	1508
966.302	1538
966.528	1527
966.754	1518
966.98	1529
967.206	1523
967.431	1437
967.657	1558
967.883	1529
968.109	1489
968.334	1480
968.56	1443
968.785	1475
969.011	1426
969.236	1479
969.462	1441
969.687	1461
969.912	1508
970.138	1496
970.363	1444
970.588	1478
970.813	1430
971.038	1402
971.263	1440
971.488	1443
971.713	1488
971.938	1464
972.163	1361
972.388	1392
972.613	1381
972.838	1392
973.062	1382
973.287	1362
973.512	1330
973.736	1374
973.961	1381
974.185	1340
974.41	1411
974.634	1287
974.858	1303
975.083	1330
975.307	1390
975.531	1277
975.755	1263
975.98	1311
976.204	1241
976.428	1241
976.652	1251
976.876	1249
977.1	1283
977.324	1224
977.547	1307
977.771	1291
977.995	1278
978.219	1200
978.442	1295
978.666	1271
978.89	1256
979.113	1243
979.337	1261
979.56	1235
979.783	1342
980.007	1192
980.23	1220
980.453	1213
980.677	1260
980.9	1242
981.123	1157
981.346	1235
981.569	1218
981.792	1242
982.015	1206
982.238	1162
982.461	1227
982.684	1183
982.907	1164
983.129	1169
983.352	1213
983.575	1209
983.797	1198
984.02	1159
984.242	1179
984.465	1144
984.687	1206
984.91	1225
985.132	1181
985.354	1205
985.577	1170
985.799	1173
986.021	1084
986.243	1150
986.465	1156
986.687	1192
986.909	1228
987.131	1150
987.353	1136
987.575	1169
987.797	1148
988.019	1056
988.241	1158
988.462	1109
988.684	1142
988.906	1197
989.127	1197
989.349	1087
989.57	1135
989.792	1195
990.013	1167
990.234	1192
990.456	1207
990.677	1196
990.898	1134
991.119	1144
991.341	1173
991.562	1098
991.783	1137
992.004	1093
992.225	1075
992.446	1131
992.667	1054
992.887	1138
993.108	1033
993.329	1180
993.55	1094
993.77	1058
993.991	1059
994.212	1098
994.432	1085
994.653	1118
994.873	1123
995.093	1008
995.314	1059
995.534	1113
995.754	1138
995.975	1142
996.195	1041
996.415	1105
996.635	1066
996.855	1109
997.075	1078
997.295	1063
997.515	1048
997.735	1121
997.955	1082
998.174	1072
998.394	1053
998.614	1115
998.834	1064
999.053	1134
999.273	1108
999.492	1149
999.712	1087
999.931	1041
1000.151	1104
1000.37	1097
1000.589	1136
1000.809	1061
1001.028	1193
1001.247	1117
1001.466	1010
1001.685	1178
1001.904	1113
1002.123	1106
1002.342	1107
1002.561	1063
1002.78	1131
1002.999	1143
1003.218	1086
1003.436	1070
1003.655	1119
1003.874	1052
1004.092	1095
1004.311	1136
1004.53	1096
1004.748	1193
1004.966	1089
1005.185	1169
1005.403	1172
1005.622	1128
1005.84	1176
1006.058	1101
1006.276	1149
1006.494	1612
1006.712	1128
1006.931	1190
1007.149	1117
1007.367	1115
1007.584	1152
1007.802	1167
1008.02	1123
1008.238	1236
1008.456	1221
1008.673	1091
1008.891	1215
1009.109	1176
1009.326	1224
1009.544	1305
1009.761	1233
1009.979	1317
1010.196	1335
1010.413	1425
1010.631	1463
1010.848	1513
1011.065	1543
1011.282	1460
1011.5	1382
1011.717	1524
1011.934	1459
1012.151	1499
1012.368	1470
1012.585	1445
1012.801	1454
1013.018	1421
1013.235	1409
1013.452	1449
1013.669	1460
1013.885	1436
1014.102	1477
1014.318	1451
1014.535	1409
1014.751	1451
1014.968	1427
1015.184	1465
1015.401	1353
1015.617	1398
1015.833	1357
1016.049	1373
1016.266	1360
1016.482	1326
1016.698	1285
1016.914	1341
1017.13	1276
1017.346	1248
1017.562	1350
1017.778	1283
1017.993	1238
1018.209	1322
1018.425	1289
1018.641	1221
1018.856	1211
1019.072	1244
1019.288	1285
1019.503	1226
1019.719	1154
1019.934	1183
1020.149	1249
1020.365	1204
1020.58	1172
1020.795	1179
1021.011	1115
1021.226	1140
1021.441	1130
1021.656	1062
1021.871	996
1022.086	1026
1022.301	1024
1022.516	995
1022.731	1045
1022.946	966
1023.16	936
1023.375	938
1023.59	901
1023.804	876
1024.019	985
1024.234	865
1024.448	892
1024.663	814
1024.877	843
1025.092	871
1025.306	855
1025.52	757
1025.734	859
1025.949	780
1026.163	749
1026.377	704
1026.591	753
1026.805	680
1027.019	681
1027.233	651
1027.447	625
1027.661	710
1027.875	658
1028.088	675
1028.302	599
1028.516	594
1028.73	599
1028.943	591
1029.157	545
1029.37	521
1029.584	-3
1029.797	-1
1030.011	-1
1030.224	-1
