Data from QEP037381__138__10-26-22-734.txt Node

Date: Wed Dec 21 10:26:22 EST 2022
User: dcclab
Spectrometer: QEP03738
Trigger mode: 4
Integration Time (sec): 1.000000E1
Scans to average: 1
Electric dark correction enabled: true
Nonlinearity correction enabled: false
Boxcar width: 0
XAxis mode: Wavelengths
Number of Pixels in Spectrum: 1044
>>>>>Begin Spectral Data<<<<<
784.041	10
784.3	-2
784.558	-4
784.817	-2
785.075	72563
785.334	12918
785.592	6170
785.851	4277
786.109	3231
786.368	2513
786.626	2076
786.884	1722
787.143	1457
787.401	1187
787.659	1115
787.917	951
788.175	880
788.433	765
788.691	689
788.949	663
789.207	624
789.465	549
789.723	537
789.98	489
790.238	536
790.496	503
790.753	480
791.011	538
791.268	472
791.526	450
791.783	482
792.041	455
792.298	372
792.556	445
792.813	423
793.07	411
793.327	391
793.584	480
793.841	394
794.099	410
794.356	470
794.613	372
794.869	413
795.126	363
795.383	345
795.64	372
795.897	314
796.153	385
796.41	370
796.667	365
796.923	374
797.18	358
797.436	386
797.693	346
797.949	395
798.206	419
798.462	336
798.718	390
798.974	358
799.231	404
799.487	388
799.743	377
799.999	389
800.255	390
800.511	368
800.767	394
801.023	365
801.279	392
801.534	398
801.79	416
802.046	389
802.302	445
802.557	448
802.813	489
803.068	481
803.324	596
803.579	665
803.835	787
804.09	1044
804.345	1230
804.601	1468
804.856	1742
805.111	1999
805.366	2187
805.621	2276
805.876	2378
806.131	2405
806.386	2392
806.641	2418
806.896	2447
807.151	2576
807.406	2565
807.661	2603
807.915	2601
808.17	2690
808.425	2703
808.679	2713
808.934	2839
809.188	2740
809.443	2832
809.697	2869
809.951	2812
810.206	2886
810.46	2954
810.714	2943
810.968	2973
811.223	2916
811.477	3000
811.731	3007
811.985	2953
812.239	2959
812.493	3018
812.747	3040
813	3007
813.254	3075
813.508	3124
813.762	3080
814.015	3057
814.269	3113
814.522	3211
814.776	3212
815.03	3282
815.283	3315
815.536	3311
815.79	3342
816.043	3450
816.296	3439
816.55	3471
816.803	3498
817.056	3616
817.309	3583
817.562	3622
817.815	3683
818.068	3678
818.321	3695
818.574	3688
818.827	3824
819.079	3809
819.332	4043
819.585	3966
819.838	4128
820.09	4047
820.343	4077
820.595	4046
820.848	4146
821.1	4153
821.353	4136
821.605	4138
821.857	4209
822.11	4083
822.362	4104
822.614	4111
822.866	4151
823.118	4095
823.37	4244
823.622	4175
823.874	4199
824.126	4279
824.378	4247
824.63	4279
824.882	4310
825.134	4229
825.385	4269
825.637	4239
825.888	4178
826.14	4148
826.392	4135
826.643	4093
826.895	4171
827.146	4029
827.397	4092
827.649	4173
827.9	4058
828.151	4051
828.402	4063
828.653	4070
828.905	4130
829.156	4202
829.407	4106
829.658	4110
829.909	4159
830.159	4112
830.41	4116
830.661	4148
830.912	4104
831.162	4027
831.413	4060
831.664	4047
831.914	4074
832.165	4082
832.415	4120
832.666	4103
832.916	4090
833.167	4043
833.417	4196
833.667	4080
833.917	4121
834.168	4121
834.418	4092
834.668	4078
834.918	4058
835.168	4104
835.418	4013
835.668	4020
835.918	4055
836.167	4021
836.417	3959
836.667	4024
836.917	4024
837.166	3954
837.416	4007
837.666	3995
837.915	3962
838.165	3960
838.414	3899
838.663	3873
838.913	3918
839.162	3861
839.411	3962
839.661	3890
839.91	3954
840.159	3904
840.408	3906
840.657	3952
840.906	3959
841.155	3916
841.404	3885
841.653	3882
841.902	3888
842.15	3949
842.399	3928
842.648	3878
842.897	3928
843.145	3885
843.394	3838
843.642	3836
843.891	3854
844.139	3814
844.388	3756
844.636	3702
844.884	3747
845.133	3724
845.381	3779
845.629	3746
845.877	3775
846.125	3749
846.373	3812
846.621	3708
846.869	3724
847.117	3721
847.365	3706
847.613	3697
847.861	3680
848.108	3727
848.356	3702
848.604	3679
848.851	3711
849.099	3684
849.346	3703
849.594	3736
849.841	3754
850.089	3734
850.336	3745
850.583	3726
850.831	3767
851.078	3869
851.325	3882
851.572	3947
851.819	3858
852.066	3696
852.313	3624
852.56	3547
852.807	3451
853.054	3510
853.301	3587
853.548	3610
853.794	3672
854.041	3638
854.288	3618
854.534	3768
854.781	3644
855.028	3593
855.274	3670
855.52	3596
855.767	3514
856.013	3588
856.26	3898
856.506	3494
856.752	3564
856.998	3498
857.244	3507
857.49	3562
857.736	3598
857.982	3574
858.228	3567
858.474	3469
858.72	3507
858.966	3505
859.212	3476
859.458	3461
859.703	3391
859.949	3326
860.195	3320
860.44	3355
860.686	3288
860.931	3364
861.177	3314
861.422	3314
861.667	3218
861.913	3238
862.158	3250
862.403	3380
862.648	3327
862.893	3349
863.138	3283
863.384	3290
863.629	3290
863.873	3257
864.118	3295
864.363	3244
864.608	3293
864.853	3323
865.098	3219
865.342	3268
865.587	3214
865.832	3287
866.076	3232
866.321	3206
866.565	3196
866.81	3141
867.054	3184
867.298	3185
867.543	3127
867.787	3199
868.031	3157
868.275	3166
868.519	3184
868.764	3147
869.008	3119
869.252	3187
869.496	3151
869.739	3146
869.983	3130
870.227	3175
870.471	3111
870.715	3194
870.958	3201
871.202	3172
871.446	3190
871.689	3129
871.933	3146
872.176	3151
872.42	3146
872.663	3126
872.906	3164
873.15	3141
873.393	3066
873.636	3180
873.879	3146
874.122	3112
874.366	3055
874.609	3044
874.852	3008
875.095	3024
875.337	2933
875.58	2900
875.823	3020
876.066	2995
876.309	3026
876.551	2885
876.794	2895
877.037	3004
877.279	2875
877.522	2880
877.764	2934
878.007	2916
878.249	2913
878.491	2869
878.734	2912
878.976	2934
879.218	2836
879.46	2928
879.702	2876
879.945	2808
880.187	2789
880.429	2767
880.671	2786
880.912	2782
881.154	2762
881.396	2644
881.638	2744
881.88	2717
882.121	2700
882.363	2687
882.605	2783
882.846	2746
883.088	2720
883.329	2696
883.571	2703
883.812	2684
884.053	2786
884.295	2856
884.536	2995
884.777	2914
885.018	2918
885.259	2894
885.5	2808
885.742	3138
885.982	2867
886.223	2797
886.464	2791
886.705	2715
886.946	2704
887.187	2630
887.428	2689
887.668	2575
887.909	2527
888.15	2538
888.39	2547
888.631	2570
888.871	2548
889.111	2527
889.352	2484
889.592	2466
889.833	2426
890.073	2393
890.313	2474
890.553	2362
890.793	2395
891.033	2338
891.273	2380
891.513	2365
891.753	2411
891.993	2378
892.233	2407
892.473	2451
892.713	2382
892.952	2369
893.192	2387
893.432	2370
893.671	2438
893.911	2423
894.15	2343
894.39	2286
894.629	2297
894.869	2355
895.108	2289
895.347	2291
895.587	2310
895.826	2304
896.065	2253
896.304	2311
896.543	2372
896.782	2223
897.021	2303
897.26	2304
897.499	2381
897.738	2367
897.977	2278
898.216	2254
898.454	2228
898.693	2190
898.932	2227
899.17	2171
899.409	2203
899.647	2211
899.886	2163
900.124	2253
900.363	2177
900.601	2201
900.839	2181
901.078	2199
901.316	2214
901.554	2246
901.792	2276
902.03	2218
902.268	2230
902.506	2268
902.744	2233
902.982	2224
903.22	2149
903.458	2134
903.695	2122
903.933	2135
904.171	2020
904.409	2052
904.646	2081
904.884	1956
905.121	2019
905.359	1964
905.596	1954
905.833	1930
906.071	1942
906.308	1963
906.545	1919
906.783	1873
907.02	1905
907.257	1873
907.494	1885
907.731	1891
907.968	1920
908.205	1831
908.442	1863
908.679	1878
908.915	1860
909.152	1833
909.389	1767
909.626	1810
909.862	1763
910.099	1807
910.335	1827
910.572	1722
910.808	1774
911.045	1753
911.281	1740
911.518	1839
911.754	1743
911.99	1740
912.226	1740
912.463	1717
912.699	1711
912.935	1702
913.171	1703
913.407	1683
913.643	1705
913.879	1674
914.114	1675
914.35	1667
914.586	1642
914.822	1600
915.057	1686
915.293	1581
915.529	1562
915.764	1652
916	1618
916.235	1610
916.471	1623
916.706	1556
916.941	1580
917.177	1565
917.412	1591
917.647	1597
917.882	1537
918.117	1608
918.352	1560
918.588	1649
918.823	1560
919.057	1563
919.292	1491
919.527	1616
919.762	1510
919.997	1575
920.232	1493
920.466	1545
920.701	1426
920.935	1501
921.17	1448
921.405	1435
921.639	1510
921.873	1458
922.108	1502
922.342	1495
922.576	1420
922.811	1409
923.045	1465
923.279	1503
923.513	1387
923.747	1461
923.981	1442
924.215	1395
924.449	1402
924.683	1357
924.917	1394
925.151	1368
925.385	1431
925.618	1402
925.852	1389
926.086	1328
926.319	1370
926.553	1370
926.786	1382
927.02	1375
927.253	1416
927.486	1412
927.72	1338
927.953	1382
928.186	1368
928.42	1363
928.653	1325
928.886	1314
929.119	1361
929.352	1354
929.585	1339
929.818	1319
930.051	1355
930.284	1345
930.516	1257
930.749	1278
930.982	1349
931.215	1351
931.447	1260
931.68	1275
931.912	1269
932.145	1275
932.377	1295
932.61	1378
932.842	1242
933.074	1311
933.307	1269
933.539	1332
933.771	1345
934.003	1283
934.236	1337
934.468	1386
934.7	1275
934.932	1302
935.164	1260
935.395	1241
935.627	1277
935.859	1286
936.091	1223
936.323	1255
936.554	1315
936.786	1267
937.017	1216
937.249	1265
937.481	1190
937.712	1284
937.943	1260
938.175	1253
938.406	1237
938.637	1321
938.869	1194
939.1	1262
939.331	1218
939.562	1247
939.793	1285
940.024	1271
940.255	1277
940.486	1239
940.717	1225
940.948	1218
941.179	1166
941.409	1210
941.64	1187
941.871	1235
942.102	1181
942.332	1213
942.563	1254
942.793	1227
943.024	1185
943.254	1212
943.484	1233
943.715	1258
943.945	1216
944.175	1163
944.405	1155
944.636	1170
944.866	1197
945.096	1216
945.326	1159
945.556	1203
945.786	1231
946.016	1195
946.245	1126
946.475	1179
946.705	1140
946.935	1189
947.164	1170
947.394	1141
947.624	1150
947.853	1207
948.083	1164
948.312	1138
948.542	1089
948.771	1087
949	1105
949.23	1116
949.459	1130
949.688	1173
949.917	1157
950.146	1157
950.375	1198
950.604	1107
950.833	1200
951.062	1190
951.291	1150
951.52	1124
951.749	1142
951.978	1103
952.206	1108
952.435	1100
952.664	1162
952.892	1135
953.121	1161
953.349	1183
953.578	1131
953.806	1145
954.035	1096
954.263	1123
954.491	1086
954.719	1118
954.948	1087
955.176	1093
955.404	1024
955.632	1097
955.86	1130
956.088	1088
956.316	1116
956.544	1142
956.772	1110
956.999	1074
957.227	1151
957.455	1065
957.683	1067
957.91	1041
958.138	1063
958.365	1065
958.593	1060
958.82	1008
959.048	1071
959.275	1048
959.502	1075
959.73	1026
959.957	1084
960.184	1124
960.411	1071
960.638	1154
960.865	1069
961.092	1092
961.319	986
961.546	1078
961.773	1096
962	1042
962.227	1122
962.454	1033
962.68	1051
962.907	1054
963.134	1008
963.36	1045
963.587	1067
963.813	1020
964.04	1058
964.266	1002
964.493	1082
964.719	1080
964.945	1073
965.171	982
965.398	1035
965.624	1060
965.85	992
966.076	1009
966.302	1051
966.528	1014
966.754	1051
966.98	1028
967.206	1030
967.431	975
967.657	1054
967.883	1047
968.109	1036
968.334	982
968.56	980
968.785	987
969.011	965
969.236	1027
969.462	954
969.687	1003
969.912	1043
970.138	1033
970.363	981
970.588	1012
970.813	976
971.038	966
971.263	993
971.488	1008
971.713	1050
971.938	1021
972.163	944
972.388	958
972.613	956
972.838	982
973.062	963
973.287	955
973.512	914
973.736	955
973.961	936
974.185	917
974.41	967
974.634	900
974.858	923
975.083	950
975.307	988
975.531	915
975.755	878
975.98	903
976.204	847
976.428	869
976.652	862
976.876	858
977.1	883
977.324	846
977.547	911
977.771	907
977.995	902
978.219	856
978.442	980
978.666	880
978.89	895
979.113	879
979.337	876
979.56	859
979.783	935
980.007	842
980.23	873
980.453	842
980.677	874
980.9	886
981.123	809
981.346	894
981.569	883
981.792	935
982.015	876
982.238	841
982.461	873
982.684	847
982.907	832
983.129	836
983.352	885
983.575	865
983.797	871
984.02	820
984.242	842
984.465	848
984.687	897
984.91	896
985.132	871
985.354	908
985.577	862
985.799	846
986.021	809
986.243	829
986.465	859
986.687	871
986.909	916
987.131	866
987.353	837
987.575	876
987.797	832
988.019	790
988.241	850
988.462	806
988.684	877
988.906	895
989.127	939
989.349	819
989.57	864
989.792	901
990.013	918
990.234	895
990.456	931
990.677	910
990.898	851
991.119	858
991.341	889
991.562	820
991.783	867
992.004	845
992.225	796
992.446	886
992.667	787
992.887	882
993.108	784
993.329	914
993.55	866
993.77	796
993.991	805
994.212	841
994.432	822
994.653	857
994.873	856
995.093	742
995.314	808
995.534	877
995.754	884
995.975	898
996.195	800
996.415	862
996.635	843
996.855	873
997.075	831
997.295	827
997.515	828
997.735	864
997.955	833
998.174	814
998.394	799
998.614	831
998.834	805
999.053	896
999.273	870
999.492	916
999.712	850
999.931	832
1000.151	884
1000.37	841
1000.589	901
1000.809	843
1001.028	966
1001.247	907
1001.466	816
1001.685	942
1001.904	874
1002.123	887
1002.342	894
1002.561	849
1002.78	887
1002.999	954
1003.218	891
1003.436	873
1003.655	919
1003.874	876
1004.092	884
1004.311	940
1004.53	904
1004.748	954
1004.966	897
1005.185	979
1005.403	965
1005.622	920
1005.84	1002
1006.058	910
1006.276	940
1006.494	1418
1006.712	935
1006.931	967
1007.149	886
1007.367	909
1007.584	940
1007.802	971
1008.02	900
1008.238	1009
1008.456	981
1008.673	854
1008.891	940
1009.109	920
1009.326	939
1009.544	1013
1009.761	923
1009.979	995
1010.196	955
1010.413	1031
1010.631	1045
1010.848	1062
1011.065	1065
1011.282	1033
1011.5	966
1011.717	1059
1011.934	1007
1012.151	1056
1012.368	1051
1012.585	986
1012.801	1023
1013.018	1017
1013.235	975
1013.452	1004
1013.669	1005
1013.885	953
1014.102	1003
1014.318	977
1014.535	941
1014.751	962
1014.968	974
1015.184	1016
1015.401	937
1015.617	986
1015.833	940
1016.049	941
1016.266	932
1016.482	945
1016.698	895
1016.914	941
1017.13	910
1017.346	901
1017.562	956
1017.778	890
1017.993	859
1018.209	943
1018.425	906
1018.641	866
1018.856	833
1019.072	875
1019.288	925
1019.503	888
1019.719	789
1019.934	832
1020.149	924
1020.365	830
1020.58	814
1020.795	855
1021.011	804
1021.226	829
1021.441	859
1021.656	779
1021.871	717
1022.086	741
1022.301	733
1022.516	740
1022.731	808
1022.946	708
1023.16	695
1023.375	693
1023.59	682
1023.804	658
1024.019	762
1024.234	618
1024.448	680
1024.663	605
1024.877	645
1025.092	652
1025.306	676
1025.52	585
1025.734	677
1025.949	584
1026.163	585
1026.377	548
1026.591	597
1026.805	531
1027.019	531
1027.233	496
1027.447	453
1027.661	564
1027.875	510
1028.088	517
1028.302	463
1028.516	465
1028.73	474
1028.943	472
1029.157	436
1029.37	400
1029.584	-2
1029.797	0
1030.011	-1
1030.224	1
