Data from QEP037381__149__10-28-12-734.txt Node

Date: Wed Dec 21 10:28:12 EST 2022
User: dcclab
Spectrometer: QEP03738
Trigger mode: 4
Integration Time (sec): 1.000000E1
Scans to average: 1
Electric dark correction enabled: true
Nonlinearity correction enabled: false
Boxcar width: 0
XAxis mode: Wavelengths
Number of Pixels in Spectrum: 1044
>>>>>Begin Spectral Data<<<<<
784.041	13
784.3	2
784.558	-4
784.817	-4
785.075	71053
785.334	13096
785.592	6339
785.851	4402
786.109	3322
786.368	2574
786.626	2121
786.884	1751
787.143	1490
787.401	1203
787.659	1121
787.917	943
788.175	892
788.433	785
788.691	699
788.949	653
789.207	638
789.465	551
789.723	544
789.98	507
790.238	527
790.496	480
790.753	478
791.011	527
791.268	462
791.526	454
791.783	466
792.041	465
792.298	386
792.556	438
792.813	418
793.07	402
793.327	388
793.584	461
793.841	400
794.099	406
794.356	474
794.613	367
794.869	402
795.126	362
795.383	351
795.64	373
795.897	319
796.153	375
796.41	356
796.667	355
796.923	358
797.18	353
797.436	382
797.693	347
797.949	399
798.206	433
798.462	317
798.718	383
798.974	361
799.231	394
799.487	371
799.743	386
799.999	403
800.255	394
800.511	349
800.767	390
801.023	356
801.279	388
801.534	388
801.79	412
802.046	395
802.302	462
802.557	437
802.813	496
803.068	481
803.324	595
803.579	673
803.835	798
804.09	1047
804.345	1222
804.601	1456
804.856	1756
805.111	2017
805.366	2214
805.621	2330
805.876	2389
806.131	2425
806.386	2407
806.641	2422
806.896	2501
807.151	2586
807.406	2603
807.661	2642
807.915	2672
808.17	2686
808.425	2763
808.679	2735
808.934	2842
809.188	2802
809.443	2844
809.697	2919
809.951	2858
810.206	2880
810.46	2971
810.714	2990
810.968	3051
811.223	2982
811.477	3038
811.731	3049
811.985	3048
812.239	2989
812.493	3070
812.747	3082
813	3042
813.254	3104
813.508	3137
813.762	3120
814.015	3140
814.269	3190
814.522	3233
814.776	3266
815.03	3259
815.283	3341
815.536	3355
815.79	3414
816.043	3460
816.296	3516
816.55	3517
816.803	3579
817.056	3718
817.309	3664
817.562	3703
817.815	3762
818.068	3740
818.321	3736
818.574	3761
818.827	3894
819.079	3914
819.332	4028
819.585	4061
819.838	4197
820.09	4085
820.343	4173
820.595	4129
820.848	4196
821.1	4228
821.353	4227
821.605	4214
821.857	4205
822.11	4150
822.362	4203
822.614	4190
822.866	4222
823.118	4212
823.37	4301
823.622	4232
823.874	4255
824.126	4309
824.378	4354
824.63	4374
824.882	4357
825.134	4359
825.385	4358
825.637	4284
825.888	4272
826.14	4260
826.392	4244
826.643	4182
826.895	4230
827.146	4184
827.397	4181
827.649	4222
827.9	4126
828.151	4102
828.402	4165
828.653	4168
828.905	4220
829.156	4243
829.407	4140
829.658	4178
829.909	4214
830.159	4238
830.41	4237
830.661	4164
830.912	4177
831.162	4130
831.413	4105
831.664	4193
831.914	4099
832.165	4139
832.415	4164
832.666	4201
832.916	4148
833.167	4158
833.417	4195
833.667	4172
833.917	4134
834.168	4189
834.418	4222
834.668	4132
834.918	4093
835.168	4153
835.418	4045
835.668	4091
835.918	4097
836.167	4104
836.417	4011
836.667	4105
836.917	4087
837.166	4042
837.416	4068
837.666	4043
837.915	4020
838.165	3988
838.414	3962
838.663	3941
838.913	4001
839.162	3936
839.411	4016
839.661	3925
839.91	3962
840.159	3949
840.408	3977
840.657	3994
840.906	4005
841.155	4015
841.404	3989
841.653	3956
841.902	4001
842.15	3941
842.399	3999
842.648	3987
842.897	3956
843.145	3909
843.394	3881
843.642	3860
843.891	3867
844.139	3851
844.388	3848
844.636	3800
844.884	3831
845.133	3827
845.381	3787
845.629	3832
845.877	3829
846.125	3827
846.373	3800
846.621	3802
846.869	3815
847.117	3807
847.365	3761
847.613	3777
847.861	3768
848.108	3790
848.356	3773
848.604	3730
848.851	3768
849.099	3762
849.346	3763
849.594	3785
849.841	3833
850.089	3811
850.336	3811
850.583	3839
850.831	3837
851.078	3894
851.325	3888
851.572	4052
851.819	3972
852.066	3766
852.313	3646
852.56	3563
852.807	3583
853.054	3601
853.301	3621
853.548	3671
853.794	3776
854.041	3705
854.288	3694
854.534	3787
854.781	3671
855.028	3692
855.274	3693
855.52	3649
855.767	3600
856.013	3612
856.26	3937
856.506	3577
856.752	3648
856.998	3628
857.244	3559
857.49	3602
857.736	3653
857.982	3689
858.228	3628
858.474	3583
858.72	3574
858.966	3573
859.212	3539
859.458	3471
859.703	3465
859.949	3412
860.195	3425
860.44	3414
860.686	3336
860.931	3433
861.177	3376
861.422	3391
861.667	3333
861.913	3301
862.158	3299
862.403	3380
862.648	3396
862.893	3452
863.138	3391
863.384	3330
863.629	3393
863.873	3380
864.118	3350
864.363	3312
864.608	3331
864.853	3392
865.098	3306
865.342	3360
865.587	3291
865.832	3372
866.076	3294
866.321	3251
866.565	3319
866.81	3187
867.054	3225
867.298	3246
867.543	3220
867.787	3234
868.031	3231
868.275	3238
868.519	3179
868.764	3227
869.008	3207
869.252	3245
869.496	3167
869.739	3234
869.983	3233
870.227	3213
870.471	3186
870.715	3212
870.958	3234
871.202	3209
871.446	3201
871.689	3199
871.933	3241
872.176	3174
872.42	3199
872.663	3174
872.906	3260
873.15	3182
873.393	3116
873.636	3208
873.879	3154
874.122	3207
874.366	3080
874.609	3119
874.852	3058
875.095	3057
875.337	3034
875.58	2970
875.823	3000
876.066	3041
876.309	3056
876.551	2958
876.794	2903
877.037	2980
877.279	2909
877.522	2935
877.764	3019
878.007	2933
878.249	2973
878.491	2942
878.734	2972
878.976	2945
879.218	2866
879.46	2922
879.702	2925
879.945	2877
880.187	2817
880.429	2825
880.671	2837
880.912	2843
881.154	2787
881.396	2720
881.638	2787
881.88	2784
882.121	2744
882.363	2785
882.605	2795
882.846	2752
883.088	2829
883.329	2722
883.571	2733
883.812	2745
884.053	2839
884.295	2913
884.536	3043
884.777	2978
885.018	3001
885.259	2980
885.5	2928
885.742	3196
885.982	2887
886.223	2805
886.464	2795
886.705	2785
886.946	2738
887.187	2703
887.428	2743
887.668	2661
887.909	2605
888.15	2590
888.39	2591
888.631	2685
888.871	2551
889.111	2554
889.352	2569
889.592	2483
889.833	2484
890.073	2429
890.313	2533
890.553	2402
890.793	2431
891.033	2414
891.273	2393
891.513	2435
891.753	2469
891.993	2387
892.233	2422
892.473	2485
892.713	2453
892.952	2424
893.192	2451
893.432	2417
893.671	2465
893.911	2410
894.15	2438
894.39	2336
894.629	2379
894.869	2384
895.108	2348
895.347	2325
895.587	2366
895.826	2342
896.065	2289
896.304	2351
896.543	2378
896.782	2283
897.021	2335
897.26	2341
897.499	2397
897.738	2393
897.977	2304
898.216	2315
898.454	2273
898.693	2249
898.932	2263
899.17	2233
899.409	2239
899.647	2185
899.886	2184
900.124	2226
900.363	2197
900.601	2235
900.839	2248
901.078	2231
901.316	2261
901.554	2231
901.792	2289
902.03	2224
902.268	2270
902.506	2313
902.744	2239
902.982	2262
903.22	2187
903.458	2181
903.695	2184
903.933	2171
904.171	2110
904.409	2100
904.646	2073
904.884	2026
905.121	2047
905.359	2014
905.596	2003
905.833	1943
906.071	1940
906.308	1983
906.545	1989
906.783	1884
907.02	1954
907.257	1906
907.494	1928
907.731	1952
907.968	1966
908.205	1889
908.442	1903
908.679	1887
908.915	1911
909.152	1920
909.389	1810
909.626	1820
909.862	1831
910.099	1843
910.335	1885
910.572	1784
910.808	1813
911.045	1819
911.281	1769
911.518	1843
911.754	1809
911.99	1805
912.226	1777
912.463	1744
912.699	1775
912.935	1744
913.171	1753
913.407	1702
913.643	1775
913.879	1708
914.114	1709
914.35	1635
914.586	1684
914.822	1657
915.057	1718
915.293	1596
915.529	1594
915.764	1696
916	1660
916.235	1639
916.471	1667
916.706	1581
916.941	1581
917.177	1594
917.412	1633
917.647	1661
917.882	1606
918.117	1653
918.352	1613
918.588	1673
918.823	1563
919.057	1575
919.292	1494
919.527	1609
919.762	1546
919.997	1589
920.232	1536
920.466	1576
920.701	1450
920.935	1533
921.17	1476
921.405	1477
921.639	1531
921.873	1459
922.108	1504
922.342	1535
922.576	1437
922.811	1439
923.045	1495
923.279	1515
923.513	1384
923.747	1503
923.981	1458
924.215	1435
924.449	1422
924.683	1401
924.917	1427
925.151	1395
925.385	1477
925.618	1445
925.852	1416
926.086	1343
926.319	1418
926.553	1424
926.786	1423
927.02	1382
927.253	1445
927.486	1463
927.72	1359
927.953	1414
928.186	1361
928.42	1418
928.653	1357
928.886	1380
929.119	1386
929.352	1369
929.585	1394
929.818	1340
930.051	1365
930.284	1391
930.516	1295
930.749	1310
930.982	1364
931.215	1342
931.447	1280
931.68	1325
931.912	1291
932.145	1302
932.377	1312
932.61	1425
932.842	1263
933.074	1319
933.307	1280
933.539	1381
933.771	1344
934.003	1296
934.236	1363
934.468	1394
934.7	1302
934.932	1357
935.164	1287
935.395	1271
935.627	1286
935.859	1308
936.091	1245
936.323	1310
936.554	1334
936.786	1301
937.017	1231
937.249	1307
937.481	1205
937.712	1305
937.943	1262
938.175	1251
938.406	1269
938.637	1312
938.869	1230
939.1	1296
939.331	1266
939.562	1276
939.793	1265
940.024	1308
940.255	1313
940.486	1254
940.717	1246
940.948	1264
941.179	1215
941.409	1231
941.64	1234
941.871	1258
942.102	1230
942.332	1219
942.563	1254
942.793	1218
943.024	1192
943.254	1233
943.484	1265
943.715	1287
943.945	1242
944.175	1169
944.405	1165
944.636	1186
944.866	1220
945.096	1240
945.326	1157
945.556	1208
945.786	1218
946.016	1201
946.245	1156
946.475	1158
946.705	1169
946.935	1219
947.164	1212
947.394	1170
947.624	1171
947.853	1216
948.083	1182
948.312	1167
948.542	1112
948.771	1143
949	1133
949.23	1137
949.459	1146
949.688	1188
949.917	1155
950.146	1169
950.375	1242
950.604	1112
950.833	1225
951.062	1204
951.291	1178
951.52	1121
951.749	1163
951.978	1132
952.206	1131
952.435	1122
952.664	1181
952.892	1182
953.121	1146
953.349	1167
953.578	1155
953.806	1159
954.035	1103
954.263	1162
954.491	1094
954.719	1165
954.948	1105
955.176	1100
955.404	1060
955.632	1128
955.86	1118
956.088	1142
956.316	1135
956.544	1143
956.772	1102
956.999	1084
957.227	1166
957.455	1097
957.683	1104
957.91	1075
958.138	1050
958.365	1080
958.593	1064
958.82	1017
959.048	1102
959.275	1089
959.502	1083
959.73	1053
959.957	1113
960.184	1147
960.411	1120
960.638	1148
960.865	1094
961.092	1113
961.319	1013
961.546	1121
961.773	1119
962	1052
962.227	1126
962.454	1070
962.68	1073
962.907	1102
963.134	1049
963.36	1071
963.587	1104
963.813	1025
964.04	1077
964.266	1031
964.493	1095
964.719	1075
964.945	1085
965.171	1010
965.398	1042
965.624	1091
965.85	1008
966.076	1013
966.302	1080
966.528	1035
966.754	1061
966.98	1064
967.206	1047
967.431	979
967.657	1085
967.883	1068
968.109	1029
968.334	992
968.56	998
968.785	1024
969.011	975
969.236	1061
969.462	989
969.687	1005
969.912	1038
970.138	1065
970.363	989
970.588	1008
970.813	974
971.038	972
971.263	1017
971.488	1009
971.713	1065
971.938	1027
972.163	943
972.388	1006
972.613	950
972.838	989
973.062	990
973.287	967
973.512	917
973.736	963
973.961	955
974.185	937
974.41	993
974.634	901
974.858	916
975.083	971
975.307	984
975.531	942
975.755	874
975.98	910
976.204	859
976.428	857
976.652	890
976.876	875
977.1	907
977.324	886
977.547	931
977.771	937
977.995	925
978.219	852
978.442	987
978.666	918
978.89	901
979.113	920
979.337	897
979.56	868
979.783	960
980.007	846
980.23	872
980.453	876
980.677	902
980.9	891
981.123	810
981.346	915
981.569	904
981.792	934
982.015	885
982.238	847
982.461	889
982.684	857
982.907	849
983.129	841
983.352	887
983.575	858
983.797	898
984.02	843
984.242	857
984.465	873
984.687	893
984.91	906
985.132	893
985.354	878
985.577	906
985.799	887
986.021	805
986.243	839
986.465	851
986.687	917
986.909	958
987.131	877
987.353	850
987.575	900
987.797	837
988.019	783
988.241	868
988.462	823
988.684	859
988.906	904
989.127	931
989.349	844
989.57	856
989.792	907
990.013	886
990.234	923
990.456	925
990.677	914
990.898	865
991.119	847
991.341	895
991.562	837
991.783	869
992.004	812
992.225	798
992.446	855
992.667	792
992.887	886
993.108	767
993.329	917
993.55	852
993.77	819
993.991	824
994.212	860
994.432	859
994.653	879
994.873	879
995.093	766
995.314	806
995.534	883
995.754	904
995.975	914
996.195	812
996.415	883
996.635	836
996.855	847
997.075	827
997.295	828
997.515	811
997.735	865
997.955	849
998.174	822
998.394	808
998.614	848
998.834	805
999.053	896
999.273	859
999.492	926
999.712	874
999.931	831
1000.151	897
1000.37	865
1000.589	918
1000.809	850
1001.028	952
1001.247	906
1001.466	800
1001.685	940
1001.904	896
1002.123	889
1002.342	887
1002.561	872
1002.78	891
1002.999	956
1003.218	904
1003.436	892
1003.655	942
1003.874	861
1004.092	909
1004.311	956
1004.53	898
1004.748	984
1004.966	933
1005.185	969
1005.403	946
1005.622	936
1005.84	1023
1006.058	908
1006.276	918
1006.494	1416
1006.712	942
1006.931	978
1007.149	903
1007.367	887
1007.584	919
1007.802	960
1008.02	912
1008.238	1004
1008.456	973
1008.673	860
1008.891	970
1009.109	893
1009.326	945
1009.544	1040
1009.761	905
1009.979	982
1010.196	973
1010.413	1036
1010.631	1054
1010.848	1073
1011.065	1064
1011.282	1018
1011.5	946
1011.717	1059
1011.934	1029
1012.151	1051
1012.368	1033
1012.585	968
1012.801	1029
1013.018	1016
1013.235	956
1013.452	978
1013.669	1007
1013.885	961
1014.102	997
1014.318	966
1014.535	933
1014.751	967
1014.968	967
1015.184	1027
1015.401	939
1015.617	978
1015.833	932
1016.049	940
1016.266	923
1016.482	931
1016.698	878
1016.914	941
1017.13	893
1017.346	899
1017.562	959
1017.778	909
1017.993	861
1018.209	933
1018.425	899
1018.641	886
1018.856	846
1019.072	879
1019.288	924
1019.503	858
1019.719	794
1019.934	802
1020.149	907
1020.365	848
1020.58	821
1020.795	877
1021.011	811
1021.226	804
1021.441	847
1021.656	749
1021.871	725
1022.086	728
1022.301	720
1022.516	738
1022.731	800
1022.946	717
1023.16	710
1023.375	690
1023.59	659
1023.804	636
1024.019	757
1024.234	626
1024.448	674
1024.663	609
1024.877	645
1025.092	654
1025.306	668
1025.52	585
1025.734	680
1025.949	597
1026.163	587
1026.377	525
1026.591	597
1026.805	530
1027.019	521
1027.233	496
1027.447	458
1027.661	556
1027.875	505
1028.088	519
1028.302	464
1028.516	462
1028.73	457
1028.943	481
1029.157	424
1029.37	418
1029.584	0
1029.797	-1
1030.011	-5
1030.224	-1
