Data from QEP037381__28__14-33-23-471.txt Node

Date: Wed Dec 21 14:33:23 EST 2022
User: dcclab
Spectrometer: QEP03738
Trigger mode: 4
Integration Time (sec): 1.000000E1
Scans to average: 1
Electric dark correction enabled: true
Nonlinearity correction enabled: false
Boxcar width: 0
XAxis mode: Wavelengths
Number of Pixels in Spectrum: 1044
>>>>>Begin Spectral Data<<<<<
784.041	11
784.3	0
784.558	-2
784.817	-6
785.075	88352
785.334	14898
785.592	6871
785.851	4717
786.109	3572
786.368	2794
786.626	2253
786.884	1900
787.143	1616
787.401	1347
787.659	1201
787.917	1058
788.175	971
788.433	847
788.691	771
788.949	710
789.207	691
789.465	597
789.723	558
789.98	522
790.238	563
790.496	527
790.753	524
791.011	556
791.268	493
791.526	469
791.783	500
792.041	491
792.298	393
792.556	459
792.813	462
793.07	445
793.327	408
793.584	491
793.841	424
794.099	445
794.356	503
794.613	412
794.869	446
795.126	414
795.383	392
795.64	406
795.897	360
796.153	423
796.41	402
796.667	405
796.923	384
797.18	396
797.436	432
797.693	378
797.949	433
798.206	451
798.462	371
798.718	429
798.974	406
799.231	441
799.487	435
799.743	446
799.999	456
800.255	458
800.511	435
800.767	472
801.023	452
801.279	472
801.534	512
801.79	537
802.046	538
802.302	609
802.557	688
802.813	804
803.068	921
803.324	1241
803.579	1625
803.835	2187
804.09	2954
804.345	3794
804.601	4752
804.856	5811
805.111	6719
805.366	7387
805.621	7961
805.876	8249
806.131	8526
806.386	8665
806.641	8841
806.896	8987
807.151	9161
807.406	9326
807.661	9453
807.915	9643
808.17	9792
808.425	9898
808.679	9929
808.934	10166
809.188	10202
809.443	10357
809.697	10544
809.951	10538
810.206	10631
810.46	10757
810.714	10835
810.968	10978
811.223	11081
811.477	11052
811.731	11293
811.985	11290
812.239	11295
812.493	11340
812.747	11377
813	11417
813.254	11493
813.508	11639
813.762	11612
814.015	11710
814.269	11824
814.522	11948
814.776	12004
815.03	12235
815.283	12388
815.536	12641
815.79	12752
816.043	12970
816.296	13082
816.55	13292
816.803	13446
817.056	13599
817.309	13752
817.562	13901
817.815	14081
818.068	14188
818.321	14322
818.574	14491
818.827	14681
819.079	15014
819.332	15276
819.585	15308
819.838	15547
820.09	15577
820.343	15753
820.595	15691
820.848	15962
821.1	15900
821.353	15938
821.605	15900
821.857	15912
822.11	15753
822.362	15793
822.614	15877
822.866	15894
823.118	15841
823.37	15987
823.622	16028
823.874	16086
824.126	16195
824.378	16120
824.63	16233
824.882	16301
825.134	16168
825.385	16090
825.637	16083
825.888	16107
826.14	16088
826.392	16033
826.643	15859
826.895	15967
827.146	15893
827.397	15809
827.649	15854
827.9	15745
828.151	15741
828.402	15755
828.653	15880
828.905	15959
829.156	16038
829.407	15920
829.658	16022
829.909	16217
830.159	16142
830.41	16045
830.661	15916
830.912	15821
831.162	15816
831.413	15814
831.664	15814
831.914	15861
832.165	15781
832.415	15788
832.666	15779
832.916	15663
833.167	15739
833.417	15824
833.667	15785
833.917	15663
834.168	15727
834.418	15738
834.668	15653
834.918	15507
835.168	15528
835.418	15467
835.668	15389
835.918	15343
836.167	15361
836.417	15246
836.667	15247
836.917	15319
837.166	15324
837.416	15298
837.666	15299
837.915	15346
838.165	15284
838.414	15228
838.663	15138
838.913	15304
839.162	15254
839.411	15246
839.661	15152
839.91	15135
840.159	15175
840.408	15195
840.657	15283
840.906	15350
841.155	15245
841.404	15209
841.653	15251
841.902	15234
842.15	15276
842.399	15412
842.648	15409
842.897	15310
843.145	15185
843.394	15040
843.642	14963
843.891	14967
844.139	14781
844.388	14704
844.636	14640
844.884	14742
845.133	14643
845.381	14640
845.629	14679
845.877	14722
846.125	14591
846.373	14742
846.621	14619
846.869	14579
847.117	14522
847.365	14395
847.613	14327
847.861	14366
848.108	14386
848.356	14404
848.604	14404
848.851	14354
849.099	14404
849.346	14420
849.594	14527
849.841	14613
850.089	14706
850.336	14802
850.583	14767
850.831	14802
851.078	14697
851.325	14656
851.572	14903
851.819	14628
852.066	14299
852.313	13942
852.56	13789
852.807	13720
853.054	13716
853.301	13759
853.548	13793
853.794	13957
854.041	13862
854.288	13901
854.534	14191
854.781	14048
855.028	14079
855.274	14085
855.52	14015
855.767	14073
856.013	14101
856.26	14417
856.506	13846
856.752	13871
856.998	13879
857.244	13884
857.49	13978
857.736	14060
857.982	14075
858.228	13986
858.474	13805
858.72	13707
858.966	13627
859.212	13488
859.458	13336
859.703	13188
859.949	13023
860.195	13039
860.44	12925
860.686	12894
860.931	12976
861.177	12823
861.422	12821
861.667	12649
861.913	12647
862.158	12663
862.403	12640
862.648	12754
862.893	12712
863.138	12685
863.384	12618
863.629	12747
863.873	12709
864.118	12714
864.363	12609
864.608	12664
864.853	12553
865.098	12459
865.342	12547
865.587	12367
865.832	12478
866.076	12416
866.321	12343
866.565	12371
866.81	12283
867.054	12262
867.298	12137
867.543	12166
867.787	12217
868.031	12212
868.275	12185
868.519	12169
868.764	12167
869.008	12209
869.252	12145
869.496	12187
869.739	12146
869.983	12181
870.227	12293
870.471	12228
870.715	12364
870.958	12266
871.202	12398
871.446	12393
871.689	12409
871.933	12395
872.176	12374
872.42	12340
872.663	12341
872.906	12384
873.15	12358
873.393	12375
873.636	12464
873.879	12364
874.122	12196
874.366	11960
874.609	11831
874.852	11681
875.095	11659
875.337	11557
875.58	11444
875.823	11549
876.066	11489
876.309	11463
876.551	11348
876.794	11238
877.037	11219
877.279	11139
877.522	11216
877.764	11201
878.007	11164
878.249	11072
878.491	11059
878.734	11122
878.976	11092
879.218	11001
879.46	10985
879.702	10894
879.945	10810
880.187	10605
880.429	10613
880.671	10511
880.912	10541
881.154	10526
881.396	10384
881.638	10525
881.88	10525
882.121	10445
882.363	10473
882.605	10459
882.846	10476
883.088	10484
883.329	10522
883.571	10558
883.812	10841
884.053	11074
884.295	11503
884.536	11760
884.777	11640
885.018	11531
885.259	11442
885.5	11373
885.742	11591
885.982	11263
886.223	11153
886.464	11027
886.705	10899
886.946	10699
887.187	10476
887.428	10318
887.668	10103
887.909	9915
888.15	9732
888.39	9697
888.631	9659
888.871	9590
889.111	9471
889.352	9432
889.592	9373
889.833	9257
890.073	9157
890.313	9204
890.553	9031
890.793	9031
891.033	9000
891.273	8944
891.513	8890
891.753	8981
891.993	8852
892.233	8903
892.473	9025
892.713	8926
892.952	8974
893.192	8936
893.432	8968
893.671	8986
893.911	8892
894.15	8916
894.39	8813
894.629	8751
894.869	8762
895.108	8687
895.347	8677
895.587	8707
895.826	8699
896.065	8656
896.304	8592
896.543	8679
896.782	8579
897.021	8616
897.26	8587
897.499	8672
897.738	8676
897.977	8615
898.216	8509
898.454	8507
898.693	8412
898.932	8396
899.17	8354
899.409	8392
899.647	8323
899.886	8269
900.124	8426
900.363	8438
900.601	8425
900.839	8511
901.078	8541
901.316	8655
901.554	8675
901.792	8865
902.03	8817
902.268	8872
902.506	8844
902.744	8703
902.982	8663
903.22	8450
903.458	8282
903.695	8142
903.933	8003
904.171	7819
904.409	7738
904.646	7625
904.884	7490
905.121	7454
905.359	7321
905.596	7308
905.833	7108
906.071	7093
906.308	7140
906.545	7048
906.783	7019
907.02	7044
907.257	6952
907.494	6978
907.731	6943
907.968	6951
908.205	6865
908.442	6785
908.679	6805
908.915	6764
909.152	6722
909.389	6555
909.626	6581
909.862	6485
910.099	6479
910.335	6521
910.572	6429
910.808	6383
911.045	6326
911.281	6370
911.518	6408
911.754	6321
911.99	6267
912.226	6234
912.463	6165
912.699	6153
912.935	6114
913.171	6053
913.407	5992
913.643	5995
913.879	5941
914.114	5906
914.35	5878
914.586	5763
914.822	5704
915.057	5761
915.293	5627
915.529	5606
915.764	5733
916	5655
916.235	5614
916.471	5676
916.706	5527
916.941	5575
917.177	5524
917.412	5567
917.647	5601
917.882	5470
918.117	5531
918.352	5546
918.588	5563
918.823	5498
919.057	5434
919.292	5265
919.527	5367
919.762	5245
919.997	5313
920.232	5185
920.466	5158
920.701	5061
920.935	5066
921.17	4994
921.405	5011
921.639	5005
921.873	5021
922.108	5019
922.342	5001
922.576	4885
922.811	4916
923.045	4944
923.279	4914
923.513	4808
923.747	4894
923.981	4810
924.215	4771
924.449	4802
924.683	4693
924.917	4696
925.151	4669
925.385	4742
925.618	4691
925.852	4655
926.086	4576
926.319	4646
926.553	4670
926.786	4658
927.02	4640
927.253	4681
927.486	4658
927.72	4638
927.953	4610
928.186	4622
928.42	4650
928.653	4579
928.886	4515
929.119	4513
929.352	4510
929.585	4527
929.818	4431
930.051	4463
930.284	4446
930.516	4348
930.749	4299
930.982	4331
931.215	4346
931.447	4258
931.68	4330
931.912	4249
932.145	4244
932.377	4303
932.61	4380
932.842	4250
933.074	4232
933.307	4206
933.539	4306
933.771	4316
934.003	4253
934.236	4300
934.468	4312
934.7	4226
934.932	4228
935.164	4173
935.395	4211
935.627	4252
935.859	4200
936.091	4160
936.323	4181
936.554	4202
936.786	4160
937.017	4056
937.249	4120
937.481	4052
937.712	4169
937.943	4075
938.175	4051
938.406	4039
938.637	4089
938.869	4034
939.1	4081
939.331	4024
939.562	4014
939.793	4002
940.024	4020
940.255	4036
940.486	3968
940.717	3941
940.948	3965
941.179	3915
941.409	3875
941.64	3868
941.871	3918
942.102	3877
942.332	3895
942.563	3917
942.793	3925
943.024	3877
943.254	3917
943.484	3935
943.715	3896
943.945	3901
944.175	3801
944.405	3839
944.636	3812
944.866	3875
945.096	3865
945.326	3807
945.556	3846
945.786	3840
946.016	3798
946.245	3728
946.475	3725
946.705	3753
946.935	3740
947.164	3719
947.394	3684
947.624	3650
947.853	3718
948.083	3662
948.312	3634
948.542	3540
948.771	3518
949	3569
949.23	3531
949.459	3559
949.688	3621
949.917	3559
950.146	3547
950.375	3648
950.604	3522
950.833	3582
951.062	3612
951.291	3520
951.52	3515
951.749	3497
951.978	3443
952.206	3453
952.435	3505
952.664	3490
952.892	3498
953.121	3449
953.349	3436
953.578	3477
953.806	3467
954.035	3389
954.263	3371
954.491	3384
954.719	3416
954.948	3340
955.176	3294
955.404	3230
955.632	3288
955.86	3320
956.088	3317
956.316	3288
956.544	3320
956.772	3233
956.999	3238
957.227	3278
957.455	3178
957.683	3214
957.91	3173
958.138	3109
958.365	3086
958.593	3107
958.82	3090
959.048	3137
959.275	3080
959.502	3106
959.73	3069
959.957	3107
960.184	3108
960.411	3074
960.638	3145
960.865	3003
961.092	3105
961.319	2974
961.546	3080
961.773	3072
962	3049
962.227	3064
962.454	3053
962.68	2973
962.907	3017
963.134	2992
963.36	2990
963.587	2979
963.813	2921
964.04	2949
964.266	2881
964.493	2984
964.719	2965
964.945	2916
965.171	2813
965.398	2895
965.624	2882
965.85	2785
966.076	2786
966.302	2861
966.528	2808
966.754	2826
966.98	2799
967.206	2792
967.431	2711
967.657	2788
967.883	2807
968.109	2767
968.334	2710
968.56	2704
968.785	2711
969.011	2686
969.236	2726
969.462	2670
969.687	2666
969.912	2726
970.138	2743
970.363	2706
970.588	2663
970.813	2645
971.038	2635
971.263	2662
971.488	2631
971.713	2657
971.938	2644
972.163	2574
972.388	2600
972.613	2563
972.838	2575
973.062	2548
973.287	2580
973.512	2491
973.736	2493
973.961	2474
974.185	2459
974.41	2520
974.634	2412
974.858	2455
975.083	2466
975.307	2474
975.531	2417
975.755	2385
975.98	2400
976.204	2319
976.428	2316
976.652	2340
976.876	2307
977.1	2345
977.324	2302
977.547	2313
977.771	2344
977.995	2308
978.219	2260
978.442	2357
978.666	2279
978.89	2285
979.113	2283
979.337	2242
979.56	2236
979.783	2348
980.007	2211
980.23	2274
980.453	2224
980.677	2248
980.9	2222
981.123	2099
981.346	2236
981.569	2213
981.792	2186
982.015	2207
982.238	2127
982.461	2176
982.684	2113
982.907	2096
983.129	2104
983.352	2151
983.575	2120
983.797	2157
984.02	2070
984.242	2069
984.465	2076
984.687	2060
984.91	2118
985.132	2074
985.354	2107
985.577	2061
985.799	2062
986.021	1985
986.243	2004
986.465	2038
986.687	2041
986.909	2085
987.131	2033
987.353	1996
987.575	2015
987.797	1972
988.019	1916
988.241	1989
988.462	1967
988.684	2003
988.906	2002
989.127	2044
989.349	1937
989.57	1938
989.792	1997
990.013	1997
990.234	2011
990.456	2005
990.677	1985
990.898	1924
991.119	1963
991.341	1975
991.562	1927
991.783	1968
992.004	1886
992.225	1847
992.446	1892
992.667	1818
992.887	1888
993.108	1753
993.329	1936
993.55	1864
993.77	1782
993.991	1809
994.212	1856
994.432	1822
994.653	1848
994.873	1824
995.093	1709
995.314	1756
995.534	1842
995.754	1850
995.975	1861
996.195	1745
996.415	1823
996.635	1805
996.855	1824
997.075	1784
997.295	1780
997.515	1748
997.735	1808
997.955	1781
998.174	1785
998.394	1771
998.614	1790
998.834	1739
999.053	1815
999.273	1773
999.492	1839
999.712	1778
999.931	1720
1000.151	1751
1000.37	1738
1000.589	1784
1000.809	1698
1001.028	1799
1001.247	1718
1001.466	1644
1001.685	1777
1001.904	1715
1002.123	1696
1002.342	1717
1002.561	1637
1002.78	1696
1002.999	1733
1003.218	1669
1003.436	1638
1003.655	1714
1003.874	1654
1004.092	1699
1004.311	1719
1004.53	1701
1004.748	1715
1004.966	1641
1005.185	1703
1005.403	1698
1005.622	1676
1005.84	1738
1006.058	1626
1006.276	1683
1006.494	2178
1006.712	1700
1006.931	1761
1007.149	1687
1007.367	1689
1007.584	1726
1007.802	1746
1008.02	1741
1008.238	1846
1008.456	1833
1008.673	1746
1008.891	1839
1009.109	1864
1009.326	1896
1009.544	2052
1009.761	1977
1009.979	2096
1010.196	2164
1010.413	2337
1010.631	2464
1010.848	2520
1011.065	2559
1011.282	2519
1011.5	2463
1011.717	2555
1011.934	2494
1012.151	2523
1012.368	2503
1012.585	2432
1012.801	2491
1013.018	2516
1013.235	2470
1013.452	2495
1013.669	2500
1013.885	2518
1014.102	2544
1014.318	2549
1014.535	2503
1014.751	2522
1014.968	2505
1015.184	2512
1015.401	2457
1015.617	2407
1015.833	2383
1016.049	2386
1016.266	2383
1016.482	2338
1016.698	2257
1016.914	2338
1017.13	2272
1017.346	2248
1017.562	2303
1017.778	2267
1017.993	2211
1018.209	2270
1018.425	2241
1018.641	2232
1018.856	2231
1019.072	2247
1019.288	2278
1019.503	2206
1019.719	2132
1019.934	2148
1020.149	2152
1020.365	2107
1020.58	2052
1020.795	2062
1021.011	1967
1021.226	1939
1021.441	1923
1021.656	1840
1021.871	1756
1022.086	1724
1022.301	1708
1022.516	1677
1022.731	1723
1022.946	1624
1023.16	1563
1023.375	1573
1023.59	1532
1023.804	1490
1024.019	1526
1024.234	1403
1024.448	1443
1024.663	1345
1024.877	1328
1025.092	1312
1025.306	1337
1025.52	1216
1025.734	1303
1025.949	1197
1026.163	1166
1026.377	1125
1026.591	1153
1026.805	1054
1027.019	1058
1027.233	1001
1027.447	946
1027.661	1057
1027.875	1012
1028.088	986
1028.302	922
1028.516	900
1028.73	878
1028.943	874
1029.157	829
1029.37	751
1029.584	0
1029.797	2
1030.011	-3
1030.224	-2
