Data from QEP037381__90__13-48-44-639.txt Node

Date: Fri Apr 28 13:48:44 EDT 2023
User: dcclab
Spectrometer: QEP03738
Trigger mode: 4
Integration Time (sec): 1.000000E1
Scans to average: 1
Electric dark correction enabled: true
Nonlinearity correction enabled: false
Boxcar width: 0
XAxis mode: Wavelengths
Number of Pixels in Spectrum: 1044
>>>>>Begin Spectral Data<<<<<
784.041	11.12
784.3	-0.88
784.558	0.12
784.817	-5.88
785.075	70286.12
785.334	14434.12
785.592	7580.12
785.851	5332.12
786.109	4038.12
786.368	3164.12
786.626	2564.12
786.884	2159.12
787.143	1768.12
787.401	1480.12
787.659	1321.12
787.917	1145.12
788.175	1037.12
788.433	935.12
788.691	825.12
788.949	774.12
789.207	725.12
789.465	637.12
789.723	635.12
789.98	551.12
790.238	600.12
790.496	563.12
790.753	542.12
791.011	581.12
791.268	517.12
791.526	510.12
791.783	519.12
792.041	504.12
792.298	436.12
792.556	487.12
792.813	461.12
793.07	443.12
793.327	435.12
793.584	515.12
793.841	444.12
794.099	455.12
794.356	532.12
794.613	421.12
794.869	463.12
795.126	419.12
795.383	400.12
795.64	426.12
795.897	377.12
796.153	436.12
796.41	417.12
796.667	412.12
796.923	417.12
797.18	412.12
797.436	454.12
797.693	397.12
797.949	454.12
798.206	485.12
798.462	389.12
798.718	455.12
798.974	432.12
799.231	464.12
799.487	462.12
799.743	467.12
799.999	491.12
800.255	495.12
800.511	467.12
800.767	504.12
801.023	512.12
801.279	542.12
801.534	591.12
801.79	633.12
802.046	660.12
802.302	804.12
802.557	933.12
802.813	1177.12
803.068	1488.12
803.324	2113.12
803.579	2896.12
803.835	3971.12
804.09	5511.12
804.345	6991.12
804.601	8523.12
804.856	9812.12
805.111	10894.12
805.366	11586.12
805.621	12095.12
805.876	12393.12
806.131	12591.12
806.386	12832.12
806.641	12992.12
806.896	13245.12
807.151	13524.12
807.406	13632.12
807.661	13923.12
807.915	14224.12
808.17	14339.12
808.425	14577.12
808.679	14658.12
808.934	14979.12
809.188	15246.12
809.443	15382.12
809.697	15607.12
809.951	15670.12
810.206	15779.12
810.46	15949.12
810.714	16107.12
810.968	16273.12
811.223	16314.12
811.477	16398.12
811.731	16552.12
811.985	16595.12
812.239	16772.12
812.493	16814.12
812.747	16986.12
813	16907.12
813.254	17097.12
813.508	17170.12
813.762	17147.12
814.015	17307.12
814.269	17456.12
814.522	17631.12
814.776	17857.12
815.03	18039.12
815.283	18286.12
815.536	18491.12
815.79	18774.12
816.043	19109.12
816.296	19325.12
816.55	19510.12
816.803	19925.12
817.056	20044.12
817.309	20406.12
817.562	20453.12
817.815	20786.12
818.068	20981.12
818.321	21175.12
818.574	21583.12
818.827	21964.12
819.079	22079.12
819.332	22650.12
819.585	22937.12
819.838	23130.12
820.09	23396.12
820.343	23500.12
820.595	23518.12
820.848	23824.12
821.1	23955.12
821.353	23796.12
821.605	23868.12
821.857	23953.12
822.11	23712.12
822.362	23640.12
822.614	23653.12
822.866	23683.12
823.118	23633.12
823.37	23816.12
823.622	23866.12
823.874	23927.12
824.126	24062.12
824.378	24091.12
824.63	24084.12
824.882	24157.12
825.134	24116.12
825.385	24125.12
825.637	24123.12
825.888	24062.12
826.14	23914.12
826.392	23714.12
826.643	23614.12
826.895	23654.12
827.146	23466.12
827.397	23452.12
827.649	23468.12
827.9	23364.12
828.151	23472.12
828.402	23427.12
828.653	23476.12
828.905	23571.12
829.156	23601.12
829.407	23551.12
829.658	23494.12
829.909	23406.12
830.159	23378.12
830.41	23292.12
830.661	23279.12
830.912	23033.12
831.162	23048.12
831.413	22879.12
831.664	23022.12
831.914	22742.12
832.165	22908.12
832.415	22925.12
832.666	22901.12
832.916	22878.12
833.167	22718.12
833.417	22832.12
833.667	22673.12
833.917	22556.12
834.168	22623.12
834.418	22427.12
834.668	22434.12
834.918	22237.12
835.168	22242.12
835.418	22115.12
835.668	22127.12
835.918	21995.12
836.167	21990.12
836.417	21950.12
836.667	21851.12
836.917	21799.12
837.166	21797.12
837.416	21799.12
837.666	21637.12
837.915	21606.12
838.165	21492.12
838.414	21453.12
838.663	21311.12
838.913	21417.12
839.162	21273.12
839.411	21362.12
839.661	21142.12
839.91	21201.12
840.159	21060.12
840.408	21153.12
840.657	21105.12
840.906	21108.12
841.155	21133.12
841.404	21083.12
841.653	21171.12
841.902	21143.12
842.15	21126.12
842.399	21111.12
842.648	21057.12
842.897	20902.12
843.145	20745.12
843.394	20664.12
843.642	20520.12
843.891	20388.12
844.139	20312.12
844.388	20262.12
844.636	20147.12
844.884	20087.12
845.133	20098.12
845.381	20092.12
845.629	19967.12
845.877	20066.12
846.125	19984.12
846.373	19953.12
846.621	19806.12
846.869	19872.12
847.117	19784.12
847.365	19600.12
847.613	19566.12
847.861	19506.12
848.108	19466.12
848.356	19365.12
848.604	19326.12
848.851	19388.12
849.099	19363.12
849.346	19434.12
849.594	19430.12
849.841	19487.12
850.089	19527.12
850.336	19620.12
850.583	19567.12
850.831	19415.12
851.078	19319.12
851.325	19220.12
851.572	19221.12
851.819	18927.12
852.066	18647.12
852.313	18285.12
852.56	18352.12
852.807	18106.12
853.054	18125.12
853.301	18203.12
853.548	18160.12
853.794	18302.12
854.041	18297.12
854.288	18399.12
854.534	18585.12
854.781	18485.12
855.028	18299.12
855.274	18372.12
855.52	18355.12
855.767	18052.12
856.013	18008.12
856.26	18231.12
856.506	17928.12
856.752	17873.12
856.998	17910.12
857.244	17864.12
857.49	17925.12
857.736	17999.12
857.982	17955.12
858.228	17913.12
858.474	17740.12
858.72	17708.12
858.966	17440.12
859.212	17469.12
859.458	17239.12
859.703	17076.12
859.949	16897.12
860.195	16825.12
860.44	16699.12
860.686	16544.12
860.931	16611.12
861.177	16489.12
861.422	16455.12
861.667	16387.12
861.913	16414.12
862.158	16453.12
862.403	16545.12
862.648	16546.12
862.893	16522.12
863.138	16568.12
863.384	16407.12
863.629	16431.12
863.873	16343.12
864.118	16285.12
864.363	16141.12
864.608	16057.12
864.853	15975.12
865.098	15897.12
865.342	15838.12
865.587	15732.12
865.832	15803.12
866.076	15754.12
866.321	15641.12
866.565	15621.12
866.81	15472.12
867.054	15584.12
867.298	15455.12
867.543	15506.12
867.787	15397.12
868.031	15472.12
868.275	15357.12
868.519	15378.12
868.764	15317.12
869.008	15353.12
869.252	15256.12
869.496	15187.12
869.739	15192.12
869.983	15176.12
870.227	15214.12
870.471	15078.12
870.715	15127.12
870.958	15216.12
871.202	15156.12
871.446	15197.12
871.689	15139.12
871.933	15188.12
872.176	15125.12
872.42	15074.12
872.663	15058.12
872.906	14916.12
873.15	14885.12
873.393	14644.12
873.636	14582.12
873.879	14554.12
874.122	14433.12
874.366	14297.12
874.609	14294.12
874.852	14126.12
875.095	14093.12
875.337	13948.12
875.58	13894.12
875.823	13907.12
876.066	13945.12
876.309	13897.12
876.551	13808.12
876.794	13740.12
877.037	13759.12
877.279	13590.12
877.522	13639.12
877.764	13631.12
878.007	13610.12
878.249	13590.12
878.491	13508.12
878.734	13589.12
878.976	13607.12
879.218	13421.12
879.46	13399.12
879.702	13282.12
879.945	13135.12
880.187	13071.12
880.429	12926.12
880.671	12902.12
880.912	12836.12
881.154	12793.12
881.396	12706.12
881.638	12765.12
881.88	12747.12
882.121	12684.12
882.363	12653.12
882.605	12663.12
882.846	12595.12
883.088	12504.12
883.329	12579.12
883.571	12473.12
883.812	12512.12
884.053	12561.12
884.295	12602.12
884.536	12724.12
884.777	12779.12
885.018	12688.12
885.259	12659.12
885.5	12460.12
885.742	12703.12
885.982	12552.12
886.223	12402.12
886.464	12374.12
886.705	12240.12
886.946	12281.12
887.187	12095.12
887.428	11992.12
887.668	11786.12
887.909	11676.12
888.15	11574.12
888.39	11584.12
888.631	11523.12
888.871	11363.12
889.111	11389.12
889.352	11168.12
889.592	11186.12
889.833	11099.12
890.073	11085.12
890.313	10964.12
890.553	10839.12
890.793	10865.12
891.033	10761.12
891.273	10675.12
891.513	10681.12
891.753	10708.12
891.993	10644.12
892.233	10734.12
892.473	10755.12
892.713	10642.12
892.952	10679.12
893.192	10609.12
893.432	10618.12
893.671	10662.12
893.911	10503.12
894.15	10486.12
894.39	10363.12
894.629	10359.12
894.869	10316.12
895.108	10219.12
895.347	10114.12
895.587	10100.12
895.826	9949.12
896.065	9996.12
896.304	10058.12
896.543	10020.12
896.782	9883.12
897.021	9990.12
897.26	9890.12
897.499	9939.12
897.738	9932.12
897.977	9841.12
898.216	9721.12
898.454	9623.12
898.693	9577.12
898.932	9537.12
899.17	9525.12
899.409	9528.12
899.647	9466.12
899.886	9456.12
900.124	9462.12
900.363	9356.12
900.601	9384.12
900.839	9457.12
901.078	9433.12
901.316	9427.12
901.554	9518.12
901.792	9526.12
902.03	9411.12
902.268	9413.12
902.506	9406.12
902.744	9307.12
902.982	9262.12
903.22	9148.12
903.458	9060.12
903.695	8965.12
903.933	8922.12
904.171	8719.12
904.409	8698.12
904.646	8526.12
904.884	8437.12
905.121	8423.12
905.359	8279.12
905.596	8238.12
905.833	8082.12
906.071	8052.12
906.308	8173.12
906.545	8123.12
906.783	8103.12
907.02	8036.12
907.257	7966.12
907.494	8040.12
907.731	7952.12
907.968	8034.12
908.205	7896.12
908.442	7900.12
908.679	7861.12
908.915	7790.12
909.152	7766.12
909.389	7631.12
909.626	7574.12
909.862	7480.12
910.099	7475.12
910.335	7458.12
910.572	7413.12
910.808	7415.12
911.045	7347.12
911.281	7337.12
911.518	7404.12
911.754	7215.12
911.99	7214.12
912.226	7152.12
912.463	7092.12
912.699	7044.12
912.935	6983.12
913.171	6912.12
913.407	6918.12
913.643	6930.12
913.879	6861.12
914.114	6728.12
914.35	6628.12
914.586	6633.12
914.822	6539.12
915.057	6620.12
915.293	6433.12
915.529	6395.12
915.764	6533.12
916	6422.12
916.235	6421.12
916.471	6395.12
916.706	6325.12
916.941	6333.12
917.177	6340.12
917.412	6369.12
917.647	6370.12
917.882	6343.12
918.117	6367.12
918.352	6366.12
918.588	6304.12
918.823	6176.12
919.057	6163.12
919.292	6000.12
919.527	6082.12
919.762	5989.12
919.997	5967.12
920.232	5856.12
920.466	5797.12
920.701	5646.12
920.935	5710.12
921.17	5640.12
921.405	5558.12
921.639	5626.12
921.873	5539.12
922.108	5619.12
922.342	5613.12
922.576	5438.12
922.811	5500.12
923.045	5512.12
923.279	5536.12
923.513	5320.12
923.747	5509.12
923.981	5417.12
924.215	5319.12
924.449	5323.12
924.683	5257.12
924.917	5226.12
925.151	5216.12
925.385	5233.12
925.618	5221.12
925.852	5168.12
926.086	5084.12
926.319	5195.12
926.553	5103.12
926.786	5181.12
927.02	5100.12
927.253	5148.12
927.486	5148.12
927.72	5087.12
927.953	5111.12
928.186	4990.12
928.42	5037.12
928.653	4997.12
928.886	4958.12
929.119	4975.12
929.352	4981.12
929.585	4968.12
929.818	4835.12
930.051	4871.12
930.284	4848.12
930.516	4726.12
930.749	4722.12
930.982	4694.12
931.215	4735.12
931.447	4666.12
931.68	4641.12
931.912	4602.12
932.145	4619.12
932.377	4616.12
932.61	4721.12
932.842	4574.12
933.074	4671.12
933.307	4552.12
933.539	4711.12
933.771	4637.12
934.003	4614.12
934.236	4642.12
934.468	4684.12
934.7	4564.12
934.932	4585.12
935.164	4514.12
935.395	4526.12
935.627	4472.12
935.859	4505.12
936.091	4461.12
936.323	4511.12
936.554	4492.12
936.786	4412.12
937.017	4379.12
937.249	4396.12
937.481	4347.12
937.712	4414.12
937.943	4376.12
938.175	4342.12
938.406	4351.12
938.637	4369.12
938.869	4275.12
939.1	4373.12
939.331	4276.12
939.562	4316.12
939.793	4279.12
940.024	4301.12
940.255	4260.12
940.486	4231.12
940.717	4221.12
940.948	4196.12
941.179	4100.12
941.409	4134.12
941.64	4138.12
941.871	4165.12
942.102	4085.12
942.332	4123.12
942.563	4147.12
942.793	4147.12
943.024	4071.12
943.254	4105.12
943.484	4161.12
943.715	4110.12
943.945	4151.12
944.175	4069.12
944.405	4010.12
944.636	4043.12
944.866	4085.12
945.096	4135.12
945.326	4013.12
945.556	4080.12
945.786	4064.12
946.016	3962.12
946.245	3916.12
946.475	3905.12
946.705	3938.12
946.935	3888.12
947.164	3909.12
947.394	3803.12
947.624	3869.12
947.853	3881.12
948.083	3834.12
948.312	3820.12
948.542	3724.12
948.771	3678.12
949	3781.12
949.23	3740.12
949.459	3747.12
949.688	3785.12
949.917	3724.12
950.146	3742.12
950.375	3774.12
950.604	3685.12
950.833	3779.12
951.062	3760.12
951.291	3733.12
951.52	3643.12
951.749	3709.12
951.978	3622.12
952.206	3647.12
952.435	3620.12
952.664	3659.12
952.892	3609.12
953.121	3603.12
953.349	3648.12
953.578	3632.12
953.806	3514.12
954.035	3472.12
954.263	3503.12
954.491	3488.12
954.719	3498.12
954.948	3447.12
955.176	3465.12
955.404	3385.12
955.632	3456.12
955.86	3421.12
956.088	3419.12
956.316	3434.12
956.544	3433.12
956.772	3358.12
956.999	3318.12
957.227	3423.12
957.455	3250.12
957.683	3279.12
957.91	3276.12
958.138	3250.12
958.365	3223.12
958.593	3219.12
958.82	3200.12
959.048	3240.12
959.275	3218.12
959.502	3177.12
959.73	3165.12
959.957	3212.12
960.184	3209.12
960.411	3118.12
960.638	3265.12
960.865	3180.12
961.092	3171.12
961.319	3081.12
961.546	3211.12
961.773	3186.12
962	3116.12
962.227	3187.12
962.454	3105.12
962.68	3127.12
962.907	3098.12
963.134	3045.12
963.36	3078.12
963.587	3085.12
963.813	2986.12
964.04	3051.12
964.266	2963.12
964.493	3032.12
964.719	3020.12
964.945	2996.12
965.171	2899.12
965.398	2918.12
965.624	2938.12
965.85	2865.12
966.076	2847.12
966.302	2903.12
966.528	2882.12
966.754	2885.12
966.98	2866.12
967.206	2847.12
967.431	2796.12
967.657	2868.12
967.883	2865.12
968.109	2814.12
968.334	2780.12
968.56	2753.12
968.785	2733.12
969.011	2716.12
969.236	2800.12
969.462	2723.12
969.687	2733.12
969.912	2775.12
970.138	2777.12
970.363	2672.12
970.588	2716.12
970.813	2695.12
971.038	2652.12
971.263	2707.12
971.488	2685.12
971.713	2697.12
971.938	2680.12
972.163	2558.12
972.388	2597.12
972.613	2562.12
972.838	2597.12
973.062	2599.12
973.287	2552.12
973.512	2500.12
973.736	2558.12
973.961	2564.12
974.185	2508.12
974.41	2538.12
974.634	2460.12
974.858	2439.12
975.083	2474.12
975.307	2509.12
975.531	2436.12
975.755	2379.12
975.98	2403.12
976.204	2326.12
976.428	2318.12
976.652	2333.12
976.876	2302.12
977.1	2323.12
977.324	2294.12
977.547	2369.12
977.771	2339.12
977.995	2299.12
978.219	2224.12
978.442	2379.12
978.666	2323.12
978.89	2270.12
979.113	2293.12
979.337	2268.12
979.56	2272.12
979.783	2343.12
980.007	2217.12
980.23	2234.12
980.453	2217.12
980.677	2236.12
980.9	2256.12
981.123	2138.12
981.346	2245.12
981.569	2172.12
981.792	2222.12
982.015	2166.12
982.238	2128.12
982.461	2155.12
982.684	2078.12
982.907	2107.12
983.129	2100.12
983.352	2126.12
983.575	2103.12
983.797	2121.12
984.02	2035.12
984.242	2051.12
984.465	2067.12
984.687	2090.12
984.91	2105.12
985.132	2047.12
985.354	2058.12
985.577	2049.12
985.799	2023.12
986.021	1944.12
986.243	1982.12
986.465	1988.12
986.687	2013.12
986.909	2064.12
987.131	1975.12
987.353	1966.12
987.575	2023.12
987.797	1955.12
988.019	1880.12
988.241	1944.12
988.462	1937.12
988.684	1937.12
988.906	1987.12
989.127	2004.12
989.349	1894.12
989.57	1941.12
989.792	1945.12
990.013	1954.12
990.234	1973.12
990.456	1976.12
990.677	1946.12
990.898	1884.12
991.119	1888.12
991.341	1914.12
991.562	1833.12
991.783	1892.12
992.004	1785.12
992.225	1764.12
992.446	1832.12
992.667	1725.12
992.887	1848.12
993.108	1735.12
993.329	1857.12
993.55	1823.12
993.77	1754.12
993.991	1752.12
994.212	1747.12
994.432	1744.12
994.653	1779.12
994.873	1751.12
995.093	1657.12
995.314	1715.12
995.534	1741.12
995.754	1779.12
995.975	1789.12
996.195	1687.12
996.415	1724.12
996.635	1689.12
996.855	1698.12
997.075	1666.12
997.295	1685.12
997.515	1648.12
997.735	1688.12
997.955	1671.12
998.174	1667.12
998.394	1632.12
998.614	1706.12
998.834	1660.12
999.053	1718.12
999.273	1687.12
999.492	1709.12
999.712	1657.12
999.931	1618.12
1000.151	1664.12
1000.37	1635.12
1000.589	1689.12
1000.809	1636.12
1001.028	1704.12
1001.247	1659.12
1001.466	1552.12
1001.685	1715.12
1001.904	1643.12
1002.123	1625.12
1002.342	1621.12
1002.561	1568.12
1002.78	1608.12
1002.999	1654.12
1003.218	1568.12
1003.436	1561.12
1003.655	1640.12
1003.874	1528.12
1004.092	1564.12
1004.311	1589.12
1004.53	1572.12
1004.748	1663.12
1004.966	1558.12
1005.185	1625.12
1005.403	1605.12
1005.622	1562.12
1005.84	1648.12
1006.058	1534.12
1006.276	1560.12
1006.494	1936.12
1006.712	1558.12
1006.931	1629.12
1007.149	1525.12
1007.367	1556.12
1007.584	1579.12
1007.802	1607.12
1008.02	1537.12
1008.238	1640.12
1008.456	1631.12
1008.673	1497.12
1008.891	1586.12
1009.109	1530.12
1009.326	1568.12
1009.544	1664.12
1009.761	1568.12
1009.979	1654.12
1010.196	1639.12
1010.413	1712.12
1010.631	1719.12
1010.848	1720.12
1011.065	1740.12
1011.282	1684.12
1011.5	1624.12
1011.717	1746.12
1011.934	1643.12
1012.151	1701.12
1012.368	1696.12
1012.585	1614.12
1012.801	1678.12
1013.018	1628.12
1013.235	1617.12
1013.452	1657.12
1013.669	1644.12
1013.885	1591.12
1014.102	1661.12
1014.318	1632.12
1014.535	1561.12
1014.751	1611.12
1014.968	1623.12
1015.184	1652.12
1015.401	1539.12
1015.617	1563.12
1015.833	1546.12
1016.049	1533.12
1016.266	1532.12
1016.482	1547.12
1016.698	1452.12
1016.914	1499.12
1017.13	1474.12
1017.346	1466.12
1017.562	1520.12
1017.778	1451.12
1017.993	1431.12
1018.209	1518.12
1018.425	1478.12
1018.641	1429.12
1018.856	1387.12
1019.072	1452.12
1019.288	1479.12
1019.503	1411.12
1019.719	1351.12
1019.934	1384.12
1020.149	1433.12
1020.365	1380.12
1020.58	1346.12
1020.795	1384.12
1021.011	1324.12
1021.226	1314.12
1021.441	1313.12
1021.656	1259.12
1021.871	1202.12
1022.086	1201.12
1022.301	1173.12
1022.516	1170.12
1022.731	1231.12
1022.946	1164.12
1023.16	1114.12
1023.375	1110.12
1023.59	1080.12
1023.804	1053.12
1024.019	1161.12
1024.234	1045.12
1024.448	1042.12
1024.663	990.12
1024.877	1013.12
1025.092	1027.12
1025.306	1040.12
1025.52	929.12
1025.734	1010.12
1025.949	957.12
1026.163	924.12
1026.377	875.12
1026.591	927.12
1026.805	857.12
1027.019	843.12
1027.233	827.12
1027.447	766.12
1027.661	854.12
1027.875	797.12
1028.088	824.12
1028.302	737.12
1028.516	742.12
1028.73	737.12
1028.943	715.12
1029.157	670.12
1029.37	640.12
1029.584	0.12
1029.797	-1.88
1030.011	-1.88
1030.224	-0.88
