Data from QEP037381__5__10-23-10-303.txt Node

Date: Fri Apr 28 10:23:10 EDT 2023
User: dcclab
Spectrometer: QEP03738
Trigger mode: 4
Integration Time (sec): 1.000000E1
Scans to average: 1
Electric dark correction enabled: true
Nonlinearity correction enabled: false
Boxcar width: 0
XAxis mode: Wavelengths
Number of Pixels in Spectrum: 1044
>>>>>Begin Spectral Data<<<<<
784.041	12
784.3	-2
784.558	-2
784.817	-3
785.075	66685
785.334	13807
785.592	7237
785.851	5139
786.109	3889
786.368	3057
786.626	2486
786.884	2083
787.143	1723
787.401	1415
787.659	1305
787.917	1106
788.175	1032
788.433	907
788.691	826
788.949	773
789.207	716
789.465	625
789.723	598
789.98	583
790.238	612
790.496	567
790.753	534
791.011	614
791.268	510
791.526	496
791.783	523
792.041	522
792.298	434
792.556	495
792.813	473
793.07	466
793.327	441
793.584	533
793.841	441
794.099	483
794.356	535
794.613	427
794.869	465
795.126	421
795.383	424
795.64	451
795.897	393
796.153	461
796.41	434
796.667	429
796.923	440
797.18	441
797.436	474
797.693	423
797.949	483
798.206	499
798.462	432
798.718	478
798.974	459
799.231	510
799.487	487
799.743	521
799.999	550
800.255	536
800.511	526
800.767	574
801.023	588
801.279	615
801.534	697
801.79	744
802.046	810
802.302	1002
802.557	1214
802.813	1560
803.068	2099
803.324	2963
803.579	4208
803.835	5779
804.09	7811
804.345	10041
804.601	12051
804.856	13957
805.111	15439
805.366	16426
805.621	17145
805.876	17776
806.131	18105
806.386	18299
806.641	18655
806.896	18829
807.151	19283
807.406	19503
807.661	19876
807.915	20119
808.17	20466
808.425	20737
808.679	21018
808.934	21219
809.188	21354
809.443	21556
809.697	21866
809.951	22121
810.206	22159
810.46	22307
810.714	22517
810.968	22715
811.223	22969
811.477	23138
811.731	23330
811.985	23349
812.239	23518
812.493	23515
812.747	23677
813	23871
813.254	23859
813.508	23998
813.762	24149
814.015	24199
814.269	24452
814.522	24562
814.776	24937
815.03	25233
815.283	25558
815.536	25817
815.79	26222
816.043	26540
816.296	26888
816.55	27102
816.803	27426
817.056	27848
817.309	28158
817.562	28418
817.815	28741
818.068	28973
818.321	29308
818.574	29620
818.827	30099
819.079	30638
819.332	31115
819.585	31349
819.838	31836
820.09	32146
820.343	32276
820.595	32333
820.848	32720
821.1	32811
821.353	32712
821.605	32689
821.857	32772
822.11	32552
822.362	32504
822.614	32507
822.866	32610
823.118	32583
823.37	32626
823.622	32948
823.874	32876
824.126	33006
824.378	33152
824.63	33188
824.882	33302
825.134	33094
825.385	33250
825.637	33209
825.888	32948
826.14	32886
826.392	32932
826.643	32645
826.895	32620
827.146	32430
827.397	32440
827.649	32429
827.9	32470
828.151	32562
828.402	32547
828.653	32610
828.905	32823
829.156	32793
829.407	32811
829.658	32808
829.909	33108
830.159	33175
830.41	32933
830.661	32623
830.912	32356
831.162	32284
831.413	32285
831.664	32316
831.914	32301
832.165	32066
832.415	32149
832.666	32194
832.916	32250
833.167	32171
833.417	32142
833.667	32060
833.917	31986
834.168	31999
834.418	31829
834.668	31576
834.918	31461
835.168	31405
835.418	31292
835.668	31195
835.918	31150
836.167	31004
836.417	31006
836.667	30943
836.917	30959
837.166	30969
837.416	31035
837.666	30992
837.915	30962
838.165	31043
838.414	30835
838.663	30649
838.913	30823
839.162	30708
839.411	30713
839.661	30525
839.91	30516
840.159	30467
840.408	30544
840.657	30541
840.906	30480
841.155	30594
841.404	30565
841.653	30598
841.902	30636
842.15	30798
842.399	30726
842.648	30765
842.897	30432
843.145	30402
843.394	30169
843.642	30064
843.891	29848
844.139	29707
844.388	29395
844.636	29342
844.884	29483
845.133	29344
845.381	29358
845.629	29380
845.877	29314
846.125	29338
846.373	29305
846.621	29196
846.869	29132
847.117	28891
847.365	28748
847.613	28702
847.861	28707
848.108	28704
848.356	28710
848.604	28519
848.851	28619
849.099	28662
849.346	28662
849.594	28880
849.841	28880
850.089	28853
850.336	28961
850.583	28902
850.831	28800
851.078	28507
851.325	28443
851.572	28534
851.819	28282
852.066	27773
852.313	27480
852.56	27282
852.807	27068
853.054	27242
853.301	27196
853.548	27282
853.794	27350
854.041	27405
854.288	27663
854.534	27845
854.781	27722
855.028	27761
855.274	27807
855.52	27800
855.767	27752
856.013	27826
856.26	28032
856.506	27468
856.752	27286
856.998	27388
857.244	27455
857.49	27539
857.736	27531
857.982	27484
858.228	27442
858.474	27253
858.72	26935
858.966	26708
859.212	26385
859.458	26181
859.703	25967
859.949	25708
860.195	25690
860.44	25541
860.686	25525
860.931	25577
861.177	25348
861.422	25163
861.667	24873
861.913	25057
862.158	24995
862.403	25104
862.648	25061
862.893	25062
863.138	24984
863.384	24993
863.629	24946
863.873	24915
864.118	24898
864.363	24671
864.608	24563
864.853	24451
865.098	24346
865.342	24295
865.587	24126
865.832	24178
866.076	23981
866.321	24123
866.565	23901
866.81	23801
867.054	23800
867.298	23819
867.543	23691
867.787	23741
868.031	23711
868.275	23610
868.519	23632
868.764	23674
869.008	23581
869.252	23766
869.496	23548
869.739	23550
869.983	23604
870.227	23622
870.471	23612
870.715	23717
870.958	23743
871.202	24001
871.446	23937
871.689	23789
871.933	23865
872.176	23951
872.42	23800
872.663	23817
872.906	23767
873.15	23898
873.393	23918
873.636	23851
873.879	23489
874.122	23278
874.366	22771
874.609	22529
874.852	22401
875.095	22158
875.337	22196
875.58	22080
875.823	22018
876.066	21907
876.309	21911
876.551	21759
876.794	21612
877.037	21659
877.279	21497
877.522	21456
877.764	21432
878.007	21368
878.249	21312
878.491	21364
878.734	21411
878.976	21344
879.218	21143
879.46	21039
879.702	20809
879.945	20658
880.187	20451
880.429	20498
880.671	20301
880.912	20171
881.154	20136
881.396	20000
881.638	20126
881.88	20132
882.121	20012
882.363	20025
882.605	20113
882.846	20076
883.088	20097
883.329	20090
883.571	20329
883.812	20675
884.053	21248
884.295	21744
884.536	22144
884.777	21770
885.018	21606
885.259	21408
885.5	21300
885.742	21385
885.982	21146
886.223	20949
886.464	20695
886.705	20545
886.946	20206
887.187	19764
887.428	19519
887.668	19062
887.909	18873
888.15	18619
888.39	18548
888.631	18300
888.871	18158
889.111	18036
889.352	17868
889.592	17628
889.833	17567
890.073	17413
890.313	17418
890.553	17201
890.793	17202
891.033	17256
891.273	17010
891.513	16994
891.753	17005
891.993	16926
892.233	16959
892.473	17026
892.713	17037
892.952	16880
893.192	16988
893.432	16935
893.671	16885
893.911	16812
894.15	16660
894.39	16510
894.629	16422
894.869	16374
895.108	16238
895.347	16184
895.587	16154
895.826	16133
896.065	16022
896.304	16106
896.543	16036
896.782	15919
897.021	15912
897.26	15899
897.499	15873
897.738	15811
897.977	15821
898.216	15651
898.454	15522
898.693	15455
898.932	15454
899.17	15366
899.409	15320
899.647	15290
899.886	15282
900.124	15331
900.363	15299
900.601	15467
900.839	15378
901.078	15425
901.316	15612
901.554	15697
901.792	15819
902.03	15713
902.268	15653
902.506	15648
902.744	15481
902.982	15430
903.22	15117
903.458	14938
903.695	14766
903.933	14488
904.171	14269
904.409	14105
904.646	13869
904.884	13625
905.121	13582
905.359	13484
905.596	13331
905.833	13231
906.071	13145
906.308	13202
906.545	13110
906.783	13006
907.02	13024
907.257	12966
907.494	12961
907.731	13005
907.968	12898
908.205	12680
908.442	12780
908.679	12610
908.915	12593
909.152	12457
909.389	12260
909.626	12278
909.862	12233
910.099	12103
910.335	12183
910.572	12025
910.808	12000
911.045	11913
911.281	11867
911.518	11926
911.754	11777
911.99	11678
912.226	11615
912.463	11469
912.699	11472
912.935	11357
913.171	11242
913.407	11125
913.643	11089
913.879	11074
914.114	10902
914.35	10856
914.586	10709
914.822	10632
915.057	10677
915.293	10443
915.529	10455
915.764	10481
916	10493
916.235	10372
916.471	10428
916.706	10300
916.941	10312
917.177	10315
917.412	10386
917.647	10276
917.882	10176
918.117	10211
918.352	10188
918.588	10282
918.823	9992
919.057	9906
919.292	9856
919.527	9846
919.762	9693
919.997	9613
920.232	9483
920.466	9415
920.701	9302
920.935	9300
921.17	9195
921.405	9169
921.639	9196
921.873	9059
922.108	9060
922.342	9109
922.576	8973
922.811	8932
923.045	8962
923.279	9011
923.513	8834
923.747	8856
923.981	8736
924.215	8648
924.449	8633
924.683	8575
924.917	8562
925.151	8483
925.385	8608
925.618	8440
925.852	8460
926.086	8331
926.319	8395
926.553	8426
926.786	8432
927.02	8423
927.253	8400
927.486	8353
927.72	8298
927.953	8334
928.186	8269
928.42	8252
928.653	8226
928.886	8122
929.119	8168
929.352	8084
929.585	8014
929.818	7895
930.051	7858
930.284	7853
930.516	7736
930.749	7709
930.982	7709
931.215	7668
931.447	7550
931.68	7598
931.912	7562
932.145	7573
932.377	7571
932.61	7748
932.842	7518
933.074	7564
933.307	7480
933.539	7582
933.771	7585
934.003	7519
934.236	7553
934.468	7594
934.7	7428
934.932	7478
935.164	7452
935.395	7429
935.627	7362
935.859	7305
936.091	7284
936.323	7257
936.554	7303
936.786	7206
937.017	7142
937.249	7166
937.481	7086
937.712	7160
937.943	7092
938.175	7108
938.406	7068
938.637	7121
938.869	7070
939.1	7102
939.331	7026
939.562	7011
939.793	6993
940.024	6981
940.255	6953
940.486	6969
940.717	6843
940.948	6867
941.179	6796
941.409	6821
941.64	6768
941.871	6776
942.102	6755
942.332	6771
942.563	6844
942.793	6798
943.024	6711
943.254	6751
943.484	6752
943.715	6767
943.945	6784
944.175	6646
944.405	6623
944.636	6662
944.866	6689
945.096	6717
945.326	6619
945.556	6604
945.786	6627
946.016	6554
946.245	6480
946.475	6420
946.705	6401
946.935	6354
947.164	6408
947.394	6239
947.624	6308
947.853	6314
948.083	6252
948.312	6219
948.542	6130
948.771	6117
949	6103
949.23	6114
949.459	6090
949.688	6189
949.917	6076
950.146	6110
950.375	6120
950.604	6045
950.833	6075
951.062	6094
951.291	6014
951.52	6000
951.749	5985
951.978	5923
952.206	5935
952.435	5923
952.664	5965
952.892	5932
953.121	5880
953.349	5894
953.578	5864
953.806	5822
954.035	5756
954.263	5799
954.491	5691
954.719	5667
954.948	5619
955.176	5641
955.404	5571
955.632	5627
955.86	5557
956.088	5594
956.316	5514
956.544	5497
956.772	5458
956.999	5459
957.227	5478
957.455	5405
957.683	5360
957.91	5264
958.138	5261
958.365	5284
958.593	5266
958.82	5194
959.048	5270
959.275	5225
959.502	5154
959.73	5138
959.957	5180
960.184	5202
960.411	5108
960.638	5172
960.865	5132
961.092	5115
961.319	5002
961.546	5117
961.773	5148
962	5036
962.227	5105
962.454	5055
962.68	5002
962.907	4991
963.134	4922
963.36	4897
963.587	4949
963.813	4806
964.04	4860
964.266	4742
964.493	4830
964.719	4792
964.945	4788
965.171	4677
965.398	4703
965.624	4714
965.85	4639
966.076	4590
966.302	4642
966.528	4601
966.754	4607
966.98	4595
967.206	4538
967.431	4489
967.657	4574
967.883	4557
968.109	4536
968.334	4441
968.56	4484
968.785	4473
969.011	4416
969.236	4401
969.462	4403
969.687	4399
969.912	4388
970.138	4414
970.363	4348
970.588	4343
970.813	4278
971.038	4281
971.263	4283
971.488	4259
971.713	4280
971.938	4306
972.163	4116
972.388	4132
972.613	4180
972.838	4174
973.062	4099
973.287	4125
973.512	3974
973.736	4058
973.961	4000
974.185	3956
974.41	4019
974.634	3925
974.858	3897
975.083	3946
975.307	3887
975.531	3896
975.755	3825
975.98	3789
976.204	3755
976.428	3714
976.652	3715
976.876	3713
977.1	3672
977.324	3612
977.547	3677
977.771	3707
977.995	3619
978.219	3587
978.442	3718
978.666	3644
978.89	3565
979.113	3612
979.337	3563
979.56	3545
979.783	3616
980.007	3531
980.23	3540
980.453	3486
980.677	3523
980.9	3468
981.123	3402
981.346	3484
981.569	3482
981.792	3449
982.015	3366
982.238	3297
982.461	3379
982.684	3331
982.907	3262
983.129	3285
983.352	3299
983.575	3287
983.797	3260
984.02	3218
984.242	3223
984.465	3241
984.687	3233
984.91	3177
985.132	3190
985.354	3218
985.577	3193
985.799	3120
986.021	3069
986.243	3091
986.465	3072
986.687	3146
986.909	3140
987.131	3086
987.353	3059
987.575	3066
987.797	3054
988.019	2960
988.241	3020
988.462	2967
988.684	3017
988.906	3050
989.127	3070
989.349	2970
989.57	2975
989.792	3025
990.013	3009
990.234	3005
990.456	3008
990.677	2947
990.898	2961
991.119	2924
991.341	2955
991.562	2885
991.783	2871
992.004	2819
992.225	2763
992.446	2841
992.667	2737
992.887	2829
993.108	2719
993.329	2833
993.55	2772
993.77	2647
993.991	2697
994.212	2708
994.432	2671
994.653	2656
994.873	2671
995.093	2553
995.314	2603
995.534	2665
995.754	2660
995.975	2688
996.195	2581
996.415	2609
996.635	2608
996.855	2646
997.075	2612
997.295	2607
997.515	2580
997.735	2584
997.955	2588
998.174	2588
998.394	2543
998.614	2604
998.834	2501
999.053	2559
999.273	2541
999.492	2569
999.712	2515
999.931	2478
1000.151	2512
1000.37	2427
1000.589	2526
1000.809	2430
1001.028	2510
1001.247	2436
1001.466	2333
1001.685	2480
1001.904	2398
1002.123	2387
1002.342	2362
1002.561	2313
1002.78	2286
1002.999	2387
1003.218	2338
1003.436	2308
1003.655	2307
1003.874	2228
1004.092	2301
1004.311	2324
1004.53	2249
1004.748	2342
1004.966	2243
1005.185	2278
1005.403	2272
1005.622	2295
1005.84	2368
1006.058	2250
1006.276	2269
1006.494	2659
1006.712	2270
1006.931	2311
1007.149	2251
1007.367	2269
1007.584	2314
1007.802	2317
1008.02	2297
1008.238	2448
1008.456	2417
1008.673	2306
1008.891	2462
1009.109	2441
1009.326	2565
1009.544	2642
1009.761	2617
1009.979	2820
1010.196	2853
1010.413	3070
1010.631	3166
1010.848	3278
1011.065	3282
1011.282	3258
1011.5	3171
1011.717	3255
1011.934	3174
1012.151	3185
1012.368	3155
1012.585	3156
1012.801	3182
1013.018	3147
1013.235	3130
1013.452	3197
1013.669	3181
1013.885	3192
1014.102	3266
1014.318	3220
1014.535	3221
1014.751	3177
1014.968	3188
1015.184	3154
1015.401	3020
1015.617	3035
1015.833	2997
1016.049	2927
1016.266	2915
1016.482	2887
1016.698	2791
1016.914	2823
1017.13	2754
1017.346	2739
1017.562	2796
1017.778	2718
1017.993	2627
1018.209	2710
1018.425	2662
1018.641	2616
1018.856	2603
1019.072	2642
1019.288	2645
1019.503	2601
1019.719	2507
1019.934	2508
1020.149	2600
1020.365	2489
1020.58	2425
1020.795	2405
1021.011	2298
1021.226	2235
1021.441	2281
1021.656	2127
1021.871	2070
1022.086	2037
1022.301	1979
1022.516	1970
1022.731	1975
1022.946	1908
1023.16	1865
1023.375	1812
1023.59	1761
1023.804	1717
1024.019	1779
1024.234	1646
1024.448	1657
1024.663	1574
1024.877	1579
1025.092	1514
1025.306	1544
1025.52	1438
1025.734	1494
1025.949	1384
1026.163	1399
1026.377	1311
1026.591	1336
1026.805	1271
1027.019	1214
1027.233	1190
1027.447	1135
1027.661	1224
1027.875	1140
1028.088	1147
1028.302	1073
1028.516	1033
1028.73	1034
1028.943	1015
1029.157	947
1029.37	870
1029.584	-2
1029.797	1
1030.011	-2
1030.224	-2
