Data from QEP037381__30__10-27-20-305.txt Node

Date: Fri Apr 28 10:27:20 EDT 2023
User: dcclab
Spectrometer: QEP03738
Trigger mode: 4
Integration Time (sec): 1.000000E1
Scans to average: 1
Electric dark correction enabled: true
Nonlinearity correction enabled: false
Boxcar width: 0
XAxis mode: Wavelengths
Number of Pixels in Spectrum: 1044
>>>>>Begin Spectral Data<<<<<
784.041	15
784.3	-3
784.558	1
784.817	-4
785.075	65195
785.334	13012
785.592	6814
785.851	4781
786.109	3672
786.368	2880
786.626	2358
786.884	1947
787.143	1656
787.401	1374
787.659	1264
787.917	1077
788.175	987
788.433	863
788.691	785
788.949	730
789.207	702
789.465	630
789.723	599
789.98	546
790.238	596
790.496	548
790.753	541
791.011	595
791.268	515
791.526	495
791.783	521
792.041	509
792.298	418
792.556	495
792.813	474
793.07	439
793.327	443
793.584	520
793.841	442
794.099	466
794.356	516
794.613	420
794.869	466
795.126	441
795.383	399
795.64	424
795.897	392
796.153	439
796.41	423
796.667	413
796.923	440
797.18	430
797.436	451
797.693	432
797.949	463
798.206	499
798.462	411
798.718	474
798.974	463
799.231	487
799.487	489
799.743	502
799.999	518
800.255	512
800.511	512
800.767	566
801.023	555
801.279	601
801.534	649
801.79	718
802.046	776
802.302	967
802.557	1123
802.813	1459
803.068	1917
803.324	2751
803.579	3851
803.835	5385
804.09	7298
804.345	9320
804.601	11273
804.856	13102
805.111	14503
805.366	15395
805.621	15963
805.876	16477
806.131	16730
806.386	17044
806.641	17262
806.896	17515
807.151	17855
807.406	18077
807.661	18372
807.915	18698
808.17	18913
808.425	19183
808.679	19347
808.934	19664
809.188	19845
809.443	20101
809.697	20400
809.951	20540
810.206	20627
810.46	20883
810.714	20985
810.968	21170
811.223	21299
811.477	21517
811.731	21707
811.985	21781
812.239	21933
812.493	22040
812.747	22096
813	22141
813.254	22232
813.508	22567
813.762	22489
814.015	22536
814.269	22816
814.522	22864
814.776	23215
815.03	23487
815.283	23770
815.536	24167
815.79	24398
816.043	24913
816.296	25150
816.55	25409
816.803	25631
817.056	26154
817.309	26186
817.562	26616
817.815	26895
818.068	27149
818.321	27449
818.574	27811
818.827	28123
819.079	28552
819.332	29151
819.585	29547
819.838	29925
820.09	30085
820.343	30308
820.595	30485
820.848	30710
821.1	30862
821.353	30822
821.605	30685
821.857	30816
822.11	30608
822.362	30566
822.614	30594
822.866	30597
823.118	30555
823.37	30823
823.622	30829
823.874	31069
824.126	31076
824.378	31123
824.63	31357
824.882	31347
825.134	31334
825.385	31445
825.637	31260
825.888	31186
826.14	31119
826.392	31061
826.643	30833
826.895	30894
827.146	30645
827.397	30691
827.649	30657
827.9	30564
828.151	30528
828.402	30712
828.653	30873
828.905	30933
829.156	30861
829.407	31027
829.658	31056
829.909	31195
830.159	31107
830.41	30933
830.661	30702
830.912	30636
831.162	30574
831.413	30534
831.664	30427
831.914	30475
832.165	30404
832.415	30524
832.666	30459
832.916	30516
833.167	30465
833.417	30340
833.667	30273
833.917	30214
834.168	30163
834.418	30037
834.668	30025
834.918	29881
835.168	29847
835.418	29565
835.668	29507
835.918	29526
836.167	29592
836.417	29358
836.667	29364
836.917	29398
837.166	29341
837.416	29339
837.666	29328
837.915	29298
838.165	29327
838.414	29196
838.663	29093
838.913	29040
839.162	29009
839.411	29115
839.661	29001
839.91	28958
840.159	28942
840.408	28853
840.657	28934
840.906	28891
841.155	28884
841.404	28794
841.653	28943
841.902	28835
842.15	28989
842.399	29027
842.648	28955
842.897	28837
843.145	28809
843.394	28495
843.642	28347
843.891	28303
844.139	28176
844.388	28021
844.636	27765
844.884	27897
845.133	27860
845.381	27814
845.629	27872
845.877	27938
846.125	27809
846.373	27728
846.621	27518
846.869	27693
847.117	27272
847.365	27294
847.613	27257
847.861	27169
848.108	27252
848.356	27186
848.604	26987
848.851	27152
849.099	27170
849.346	27121
849.594	27351
849.841	27423
850.089	27487
850.336	27493
850.583	27494
850.831	27327
851.078	27138
851.325	27190
851.572	27108
851.819	26834
852.066	26450
852.313	26150
852.56	25846
852.807	25933
853.054	25739
853.301	25873
853.548	25920
853.794	26012
854.041	25953
854.288	26213
854.534	26576
854.781	26373
855.028	26322
855.274	26399
855.52	26319
855.767	26253
856.013	26189
856.26	26448
856.506	25813
856.752	25926
856.998	25893
857.244	26008
857.49	26051
857.736	26147
857.982	26133
858.228	25932
858.474	25800
858.72	25506
858.966	25352
859.212	25159
859.458	24955
859.703	24662
859.949	24470
860.195	24383
860.44	24258
860.686	24183
860.931	24280
861.177	24019
861.422	23877
861.667	23883
861.913	23878
862.158	23870
862.403	23946
862.648	24008
862.893	23986
863.138	23992
863.384	23866
863.629	23855
863.873	23858
864.118	23689
864.363	23639
864.608	23425
864.853	23307
865.098	23168
865.342	23239
865.587	23165
865.832	22969
866.076	22937
866.321	22954
866.565	22915
866.81	22796
867.054	22839
867.298	22733
867.543	22802
867.787	22738
868.031	22669
868.275	22752
868.519	22567
868.764	22643
869.008	22524
869.252	22642
869.496	22495
869.739	22390
869.983	22449
870.227	22497
870.471	22559
870.715	22645
870.958	22674
871.202	22751
871.446	22752
871.689	22715
871.933	22742
872.176	22723
872.42	22663
872.663	22675
872.906	22762
873.15	22688
873.393	22631
873.636	22617
873.879	22405
874.122	22004
874.366	21686
874.609	21494
874.852	21349
875.095	21264
875.337	21238
875.58	21154
875.823	21019
876.066	20987
876.309	20982
876.551	20844
876.794	20688
877.037	20764
877.279	20573
877.522	20784
877.764	20635
878.007	20705
878.249	20558
878.491	20565
878.734	20640
878.976	20530
879.218	20342
879.46	20245
879.702	20138
879.945	19941
880.187	19683
880.429	19708
880.671	19628
880.912	19570
881.154	19530
881.396	19273
881.638	19400
881.88	19392
882.121	19331
882.363	19283
882.605	19345
882.846	19272
883.088	19230
883.329	19376
883.571	19515
883.812	19774
884.053	20182
884.295	20577
884.536	20746
884.777	20553
885.018	20371
885.259	20275
885.5	20216
885.742	20234
885.982	20014
886.223	19940
886.464	19785
886.705	19563
886.946	19363
887.187	18970
887.428	18736
887.668	18512
887.909	18285
888.15	18054
888.39	17865
888.631	17861
888.871	17662
889.111	17517
889.352	17415
889.592	17228
889.833	17150
890.073	16985
890.313	17055
890.553	16794
890.793	16709
891.033	16695
891.273	16655
891.513	16599
891.753	16515
891.993	16480
892.233	16507
892.473	16639
892.713	16488
892.952	16502
893.192	16586
893.432	16559
893.671	16547
893.911	16448
894.15	16358
894.39	16140
894.629	16049
894.869	15975
895.108	15926
895.347	15791
895.587	15859
895.826	15683
896.065	15701
896.304	15680
896.543	15674
896.782	15563
897.021	15637
897.26	15631
897.499	15614
897.738	15580
897.977	15370
898.216	15321
898.454	15149
898.693	15015
898.932	15100
899.17	15045
899.409	14996
899.647	14989
899.886	14971
900.124	14981
900.363	14974
900.601	15132
900.839	15091
901.078	15135
901.316	15193
901.554	15331
901.792	15398
902.03	15282
902.268	15324
902.506	15203
902.744	15129
902.982	15081
903.22	14781
903.458	14671
903.695	14450
903.933	14191
904.171	13990
904.409	13832
904.646	13635
904.884	13453
905.121	13401
905.359	13215
905.596	13116
905.833	13051
906.071	12984
906.308	13012
906.545	12933
906.783	12889
907.02	12898
907.257	12813
907.494	12916
907.731	12764
907.968	12731
908.205	12619
908.442	12618
908.679	12484
908.915	12408
909.152	12368
909.389	12113
909.626	12127
909.862	12020
910.099	12036
910.335	12041
910.572	11885
910.808	11902
911.045	11798
911.281	11756
911.518	11866
911.754	11748
911.99	11693
912.226	11525
912.463	11482
912.699	11322
912.935	11297
913.171	11177
913.407	11073
913.643	11098
913.879	10951
914.114	10820
914.35	10774
914.586	10740
914.822	10615
915.057	10561
915.293	10406
915.529	10341
915.764	10431
916	10412
916.235	10371
916.471	10336
916.706	10248
916.941	10321
917.177	10281
917.412	10286
917.647	10312
917.882	10240
918.117	10240
918.352	10221
918.588	10224
918.823	10034
919.057	9931
919.292	9830
919.527	9811
919.762	9641
919.997	9696
920.232	9463
920.466	9491
920.701	9328
920.935	9300
921.17	9294
921.405	9204
921.639	9224
921.873	9189
922.108	9139
922.342	9105
922.576	8992
922.811	9019
923.045	9095
923.279	8975
923.513	8823
923.747	8859
923.981	8790
924.215	8712
924.449	8685
924.683	8611
924.917	8635
925.151	8576
925.385	8628
925.618	8472
925.852	8549
926.086	8424
926.319	8522
926.553	8462
926.786	8438
927.02	8431
927.253	8445
927.486	8390
927.72	8331
927.953	8379
928.186	8355
928.42	8373
928.653	8272
928.886	8160
929.119	8195
929.352	8093
929.585	8119
929.818	7995
930.051	8039
930.284	8003
930.516	7775
930.749	7823
930.982	7772
931.215	7757
931.447	7726
931.68	7672
931.912	7681
932.145	7635
932.377	7688
932.61	7792
932.842	7582
933.074	7714
933.307	7648
933.539	7732
933.771	7649
934.003	7657
934.236	7694
934.468	7673
934.7	7562
934.932	7657
935.164	7493
935.395	7469
935.627	7490
935.859	7564
936.091	7393
936.323	7491
936.554	7412
936.786	7319
937.017	7269
937.249	7374
937.481	7209
937.712	7317
937.943	7178
938.175	7247
938.406	7198
938.637	7296
938.869	7210
939.1	7161
939.331	7135
939.562	7162
939.793	7164
940.024	7145
940.255	7130
940.486	7103
940.717	7033
940.948	6995
941.179	6893
941.409	6988
941.64	6973
941.871	6916
942.102	6904
942.332	6943
942.563	6998
942.793	6964
943.024	6856
943.254	6882
943.484	6959
943.715	6958
943.945	6900
944.175	6871
944.405	6764
944.636	6772
944.866	6864
945.096	6790
945.326	6744
945.556	6752
945.786	6809
946.016	6770
946.245	6665
946.475	6686
946.705	6538
946.935	6551
947.164	6501
947.394	6435
947.624	6474
947.853	6517
948.083	6432
948.312	6376
948.542	6337
948.771	6346
949	6307
949.23	6302
949.459	6285
949.688	6360
949.917	6332
950.146	6301
950.375	6397
950.604	6214
950.833	6332
951.062	6295
951.291	6218
951.52	6192
951.749	6202
951.978	6185
952.206	6124
952.435	6120
952.664	6124
952.892	6149
953.121	6031
953.349	6095
953.578	6074
953.806	6050
954.035	5986
954.263	5943
954.491	5869
954.719	5954
954.948	5868
955.176	5829
955.404	5798
955.632	5768
955.86	5751
956.088	5756
956.316	5792
956.544	5759
956.772	5652
956.999	5609
957.227	5728
957.455	5591
957.683	5548
957.91	5527
958.138	5489
958.365	5466
958.593	5494
958.82	5399
959.048	5464
959.275	5415
959.502	5393
959.73	5382
959.957	5386
960.184	5394
960.411	5358
960.638	5403
960.865	5372
961.092	5393
961.319	5208
961.546	5357
961.773	5352
962	5302
962.227	5301
962.454	5257
962.68	5249
962.907	5268
963.134	5161
963.36	5174
963.587	5198
963.813	5053
964.04	5121
964.266	5007
964.493	5078
964.719	5026
964.945	5010
965.171	4896
965.398	4971
965.624	4946
965.85	4846
966.076	4840
966.302	4856
966.528	4819
966.754	4814
966.98	4822
967.206	4790
967.431	4697
967.657	4762
967.883	4736
968.109	4764
968.334	4691
968.56	4654
968.785	4681
969.011	4630
969.236	4683
969.462	4591
969.687	4614
969.912	4636
970.138	4724
970.363	4533
970.588	4594
970.813	4547
971.038	4470
971.263	4511
971.488	4483
971.713	4541
971.938	4527
972.163	4379
972.388	4423
972.613	4341
972.838	4405
973.062	4348
973.287	4353
973.512	4289
973.736	4284
973.961	4318
974.185	4237
974.41	4260
974.634	4133
974.858	4167
975.083	4126
975.307	4140
975.531	4079
975.755	4000
975.98	3993
976.204	3974
976.428	3955
976.652	3943
976.876	3926
977.1	3933
977.324	3900
977.547	3900
977.771	3937
977.995	3891
978.219	3818
978.442	3970
978.666	3854
978.89	3804
979.113	3827
979.337	3856
979.56	3741
979.783	3851
980.007	3727
980.23	3795
980.453	3718
980.677	3793
980.9	3767
981.123	3611
981.346	3708
981.569	3678
981.792	3697
982.015	3635
982.238	3602
982.461	3601
982.684	3556
982.907	3482
983.129	3526
983.352	3577
983.575	3512
983.797	3498
984.02	3429
984.242	3411
984.465	3394
984.687	3435
984.91	3455
985.132	3453
985.354	3406
985.577	3409
985.799	3325
986.021	3296
986.243	3344
986.465	3303
986.687	3345
986.909	3411
987.131	3328
987.353	3276
987.575	3255
987.797	3258
988.019	3216
988.241	3232
988.462	3191
988.684	3207
988.906	3254
989.127	3287
989.349	3139
989.57	3179
989.792	3171
990.013	3202
990.234	3202
990.456	3210
990.677	3191
990.898	3075
991.119	3114
991.341	3126
991.562	3031
991.783	3123
992.004	3021
992.225	2999
992.446	3028
992.667	2935
992.887	3005
993.108	2874
993.329	3021
993.55	2934
993.77	2883
993.991	2883
994.212	2896
994.432	2876
994.653	2909
994.873	2871
995.093	2768
995.314	2797
995.534	2897
995.754	2912
995.975	2858
996.195	2780
996.415	2832
996.635	2779
996.855	2827
997.075	2770
997.295	2803
997.515	2761
997.735	2796
997.955	2797
998.174	2782
998.394	2743
998.614	2785
998.834	2726
999.053	2787
999.273	2724
999.492	2799
999.712	2702
999.931	2669
1000.151	2707
1000.37	2638
1000.589	2676
1000.809	2611
1001.028	2687
1001.247	2643
1001.466	2495
1001.685	2648
1001.904	2577
1002.123	2554
1002.342	2525
1002.561	2462
1002.78	2539
1002.999	2549
1003.218	2488
1003.436	2464
1003.655	2502
1003.874	2421
1004.092	2438
1004.311	2497
1004.53	2454
1004.748	2460
1004.966	2421
1005.185	2473
1005.403	2464
1005.622	2441
1005.84	2503
1006.058	2407
1006.276	2462
1006.494	2843
1006.712	2471
1006.931	2525
1007.149	2432
1007.367	2449
1007.584	2453
1007.802	2530
1008.02	2480
1008.238	2619
1008.456	2622
1008.673	2517
1008.891	2625
1009.109	2670
1009.326	2740
1009.544	2889
1009.761	2814
1009.979	2994
1010.196	3142
1010.413	3344
1010.631	3429
1010.848	3513
1011.065	3602
1011.282	3582
1011.5	3461
1011.717	3561
1011.934	3494
1012.151	3501
1012.368	3446
1012.585	3403
1012.801	3472
1013.018	3430
1013.235	3385
1013.452	3459
1013.669	3511
1013.885	3519
1014.102	3544
1014.318	3536
1014.535	3461
1014.751	3507
1014.968	3436
1015.184	3459
1015.401	3315
1015.617	3348
1015.833	3209
1016.049	3210
1016.266	3179
1016.482	3118
1016.698	3048
1016.914	3126
1017.13	3017
1017.346	2997
1017.562	3051
1017.778	2971
1017.993	2943
1018.209	2947
1018.425	2905
1018.641	2871
1018.856	2839
1019.072	2889
1019.288	2933
1019.503	2854
1019.719	2758
1019.934	2749
1020.149	2845
1020.365	2724
1020.58	2629
1020.795	2613
1021.011	2549
1021.226	2458
1021.441	2441
1021.656	2334
1021.871	2221
1022.086	2236
1022.301	2217
1022.516	2172
1022.731	2182
1022.946	2056
1023.16	2041
1023.375	1990
1023.59	1966
1023.804	1873
1024.019	1961
1024.234	1789
1024.448	1792
1024.663	1711
1024.877	1709
1025.092	1710
1025.306	1663
1025.52	1565
1025.734	1627
1025.949	1524
1026.163	1476
1026.377	1417
1026.591	1448
1026.805	1399
1027.019	1330
1027.233	1308
1027.447	1232
1027.661	1302
1027.875	1258
1028.088	1247
1028.302	1172
1028.516	1138
1028.73	1119
1028.943	1094
1029.157	1049
1029.37	980
1029.584	-2
1029.797	-5
1030.011	1
1030.224	-3
