Data from QEP037381__260__16-13-09-903.txt Node

Date: Fri Dec 16 16:13:09 EST 2022
User: dcclab
Spectrometer: QEP03738
Trigger mode: 4
Integration Time (sec): 1.000000E1
Scans to average: 1
Electric dark correction enabled: true
Nonlinearity correction enabled: false
Boxcar width: 0
XAxis mode: Wavelengths
Number of Pixels in Spectrum: 1044
>>>>>Begin Spectral Data<<<<<
784.041	9
784.3	-1
784.558	-3
784.817	-2
785.075	108927
785.334	18806
785.592	8829
785.851	6105
786.109	4615
786.368	3619
786.626	2912
786.884	2430
787.143	2052
787.401	1683
787.659	1523
787.917	1315
788.175	1201
788.433	1054
788.691	942
788.949	870
789.207	847
789.465	738
789.723	704
789.98	651
790.238	683
790.496	653
790.753	611
791.011	668
791.268	599
791.526	572
791.783	584
792.041	573
792.298	483
792.556	568
792.813	525
793.07	528
793.327	506
793.584	574
793.841	492
794.099	507
794.356	577
794.613	487
794.869	520
795.126	499
795.383	466
795.64	497
795.897	441
796.153	493
796.41	482
796.667	466
796.923	483
797.18	484
797.436	505
797.693	475
797.949	546
798.206	564
798.462	485
798.718	538
798.974	538
799.231	555
799.487	573
799.743	578
799.999	613
800.255	618
800.511	619
800.767	662
801.023	660
801.279	726
801.534	767
801.79	870
802.046	942
802.302	1143
802.557	1323
802.813	1689
803.068	2238
803.324	3121
803.579	4386
803.835	6075
804.09	8431
804.345	11100
804.601	14126
804.856	17172
805.111	19838
805.366	21923
805.621	23427
805.876	24575
806.131	25228
806.386	25680
806.641	26368
806.896	26663
807.151	27270
807.406	27784
807.661	28298
807.915	28761
808.17	29232
808.425	29526
808.679	29670
808.934	30078
809.188	30443
809.443	30691
809.697	31092
809.951	31318
810.206	31751
810.46	31965
810.714	32205
810.968	32603
811.223	32764
811.477	33011
811.731	33386
811.985	33623
812.239	33799
812.493	33957
812.747	34143
813	34255
813.254	34346
813.508	34584
813.762	34777
814.015	34963
814.269	35172
814.522	35520
814.776	35860
815.03	36539
815.283	36892
815.536	37481
815.79	38209
816.043	38768
816.296	39219
816.55	39567
816.803	40229
817.056	40807
817.309	41080
817.562	41583
817.815	41978
818.068	42258
818.321	42884
818.574	43397
818.827	43848
819.079	44394
819.332	45112
819.585	45591
819.838	46159
820.09	46524
820.343	46915
820.595	47239
820.848	47436
821.1	47800
821.353	47716
821.605	47760
821.857	47878
822.11	47525
822.362	47456
822.614	47344
822.866	47460
823.118	47510
823.37	47619
823.622	47812
823.874	47839
824.126	48010
824.378	48094
824.63	48422
824.882	48387
825.134	48351
825.385	48329
825.637	48070
825.888	48092
826.14	48153
826.392	47981
826.643	47623
826.895	47596
827.146	47428
827.397	47294
827.649	47395
827.9	47314
828.151	47400
828.402	47472
828.653	47782
828.905	47713
829.156	47893
829.407	47731
829.658	47907
829.909	47930
830.159	47884
830.41	47743
830.661	47525
830.912	47101
831.162	46854
831.413	46885
831.664	46991
831.914	46825
832.165	46839
832.415	46950
832.666	46903
832.916	46921
833.167	46948
833.417	46745
833.667	46665
833.917	46450
834.168	46470
834.418	46339
834.668	46224
834.918	45819
835.168	45805
835.418	45463
835.668	45470
835.918	45251
836.167	45315
836.417	45285
836.667	45132
836.917	45178
837.166	45063
837.416	45099
837.666	45016
837.915	44950
838.165	45025
838.414	44819
838.663	44764
838.913	44764
839.162	44653
839.411	44529
839.661	44293
839.91	44106
840.159	44158
840.408	44181
840.657	44050
840.906	44240
841.155	44250
841.404	44120
841.653	44230
841.902	44469
842.15	44295
842.399	44452
842.648	44155
842.897	44090
843.145	43845
843.394	43615
843.642	43341
843.891	43265
844.139	43211
844.388	42876
844.636	42675
844.884	42543
845.133	42499
845.381	42417
845.629	42571
845.877	42336
846.125	42472
846.373	42465
846.621	42243
846.869	42101
847.117	41850
847.365	41626
847.613	41417
847.861	41339
848.108	41351
848.356	41283
848.604	41143
848.851	41214
849.099	41217
849.346	41297
849.594	41511
849.841	41680
850.089	41789
850.336	41767
850.583	41580
850.831	41406
851.078	41160
851.325	41150
851.572	41199
851.819	40815
852.066	40278
852.313	39860
852.56	39508
852.807	39318
853.054	39084
853.301	39088
853.548	39214
853.794	39288
854.041	39356
854.288	39630
854.534	39694
854.781	39818
855.028	39490
855.274	39664
855.52	39426
855.767	39176
856.013	39250
856.26	39252
856.506	38777
856.752	38774
856.998	38688
857.244	38943
857.49	39124
857.736	39232
857.982	39209
858.228	38929
858.474	38842
858.72	38493
858.966	38158
859.212	37872
859.458	37462
859.703	37127
859.949	36824
860.195	36547
860.44	36436
860.686	36148
860.931	36106
861.177	35989
861.422	35762
861.667	35753
861.913	35776
862.158	35748
862.403	35981
862.648	35962
862.893	35913
863.138	35863
863.384	35853
863.629	35840
863.873	35752
864.118	35740
864.363	35505
864.608	35382
864.853	35322
865.098	35243
865.342	34936
865.587	34892
865.832	34743
866.076	34788
866.321	34648
866.565	34555
866.81	34335
867.054	34176
867.298	34113
867.543	33965
867.787	34015
868.031	33957
868.275	33882
868.519	33832
868.764	33797
869.008	33682
869.252	33632
869.496	33457
869.739	33365
869.983	33393
870.227	33452
870.471	33297
870.715	33398
870.958	33539
871.202	33559
871.446	33573
871.689	33637
871.933	33692
872.176	33582
872.42	33488
872.663	33456
872.906	33320
873.15	33230
873.393	33203
873.636	32880
873.879	32692
874.122	32370
874.366	31890
874.609	31794
874.852	31494
875.095	31440
875.337	31319
875.58	31093
875.823	31053
876.066	31052
876.309	30877
876.551	30650
876.794	30540
877.037	30591
877.279	30400
877.522	30365
877.764	30487
878.007	30505
878.249	30318
878.491	30216
878.734	30116
878.976	30061
879.218	29801
879.46	29664
879.702	29481
879.945	29366
880.187	29065
880.429	29024
880.671	28709
880.912	28752
881.154	28594
881.396	28490
881.638	28536
881.88	28504
882.121	28420
882.363	28410
882.605	28446
882.846	28369
883.088	28188
883.329	28204
883.571	28109
883.812	28163
884.053	28485
884.295	29001
884.536	29065
884.777	28953
885.018	28843
885.259	28736
885.5	28456
885.742	28690
885.982	28483
886.223	28203
886.464	28128
886.705	27942
886.946	27842
887.187	27249
887.428	27110
887.668	26698
887.909	26477
888.15	26182
888.39	26023
888.631	25928
888.871	25670
889.111	25508
889.352	25352
889.592	25197
889.833	24964
890.073	24726
890.313	24636
890.553	24456
890.793	24386
891.033	24286
891.273	24072
891.513	23970
891.753	24043
891.993	24030
892.233	24078
892.473	24204
892.713	24111
892.952	23938
893.192	24122
893.432	24056
893.671	24066
893.911	23929
894.15	23813
894.39	23503
894.629	23406
894.869	23338
895.108	23228
895.347	23058
895.587	22999
895.826	22990
896.065	22875
896.304	22898
896.543	22755
896.782	22760
897.021	22618
897.26	22574
897.499	22621
897.738	22605
897.977	22260
898.216	22118
898.454	21921
898.693	21796
898.932	21821
899.17	21767
899.409	21619
899.647	21570
899.886	21445
900.124	21516
900.363	21484
900.601	21485
900.839	21499
901.078	21619
901.316	21552
901.554	21681
901.792	21766
902.03	21768
902.268	21737
902.506	21674
902.744	21534
902.982	21445
903.22	21010
903.458	20882
903.695	20445
903.933	20383
904.171	19983
904.409	19741
904.646	19492
904.884	19249
905.121	19086
905.359	18788
905.596	18658
905.833	18428
906.071	18374
906.308	18422
906.545	18373
906.783	18214
907.02	18174
907.257	18100
907.494	18050
907.731	18057
907.968	17980
908.205	17904
908.442	17777
908.679	17598
908.915	17500
909.152	17431
909.389	17210
909.626	17120
909.862	17003
910.099	16920
910.335	16976
910.572	16740
910.808	16789
911.045	16741
911.281	16514
911.518	16568
911.754	16503
911.99	16287
912.226	16219
912.463	16143
912.699	15922
912.935	15851
913.171	15694
913.407	15551
913.643	15602
913.879	15406
914.114	15238
914.35	15175
914.586	14948
914.822	14763
915.057	14736
915.293	14562
915.529	14558
915.764	14697
916	14500
916.235	14371
916.471	14387
916.706	14288
916.941	14273
917.177	14280
917.412	14247
917.647	14259
917.882	14086
918.117	14159
918.352	14107
918.588	14108
918.823	13954
919.057	13770
919.292	13551
919.527	13606
919.762	13360
919.997	13362
920.232	13162
920.466	13111
920.701	12907
920.935	12884
921.17	12815
921.405	12728
921.639	12675
921.873	12648
922.108	12563
922.342	12582
922.576	12464
922.811	12374
923.045	12422
923.279	12400
923.513	12064
923.747	12171
923.981	12082
924.215	11968
924.449	11921
924.683	11759
924.917	11712
925.151	11665
925.385	11703
925.618	11642
925.852	11633
926.086	11507
926.319	11595
926.553	11480
926.786	11490
927.02	11453
927.253	11632
927.486	11491
927.72	11428
927.953	11439
928.186	11374
928.42	11420
928.653	11257
928.886	11203
929.119	11234
929.352	11085
929.585	11017
929.818	10911
930.051	10839
930.284	10765
930.516	10589
930.749	10607
930.982	10593
931.215	10552
931.447	10386
931.68	10436
931.912	10310
932.145	10304
932.377	10383
932.61	10445
932.842	10216
933.074	10275
933.307	10195
933.539	10317
933.771	10294
934.003	10191
934.236	10310
934.468	10298
934.7	10160
934.932	10244
935.164	10180
935.395	10152
935.627	10127
935.859	10083
936.091	9924
936.323	10019
936.554	9948
936.786	9844
937.017	9754
937.249	9785
937.481	9717
937.712	9734
937.943	9761
938.175	9659
938.406	9697
938.637	9747
938.869	9481
939.1	9588
939.331	9553
939.562	9566
939.793	9468
940.024	9488
940.255	9455
940.486	9416
940.717	9475
940.948	9534
941.179	9460
941.409	9364
941.64	9296
941.871	9188
942.102	9118
942.332	9212
942.563	9199
942.793	9145
943.024	9136
943.254	9080
943.484	9177
943.715	9140
943.945	9074
944.175	8996
944.405	8924
944.636	8971
944.866	8956
945.096	8981
945.326	8846
945.556	8887
945.786	8907
946.016	8799
946.245	8673
946.475	8642
946.705	8614
946.935	8560
947.164	8510
947.394	8507
947.624	8421
947.853	8429
948.083	8340
948.312	8322
948.542	8202
948.771	8165
949	8167
949.23	8135
949.459	8167
949.688	8220
949.917	8128
950.146	8194
950.375	8255
950.604	8061
950.833	8120
951.062	8073
951.291	8083
951.52	8005
951.749	7965
951.978	7925
952.206	7925
952.435	7884
952.664	7921
952.892	7870
953.121	7820
953.349	7812
953.578	7788
953.806	7705
954.035	7662
954.263	7610
954.491	7558
954.719	7580
954.948	7503
955.176	7503
955.404	7342
955.632	7391
955.86	7333
956.088	7360
956.316	7356
956.544	7283
956.772	7184
956.999	7190
957.227	7192
957.455	7049
957.683	7051
957.91	6990
958.138	6979
958.365	6896
958.593	6947
958.82	6837
959.048	6923
959.275	6852
959.502	6772
959.73	6758
959.957	6780
960.184	6860
960.411	6725
960.638	6763
960.865	6714
961.092	6732
961.319	6633
961.546	6710
961.773	6677
962	6621
962.227	6666
962.454	6658
962.68	6539
962.907	6542
963.134	6465
963.36	6463
963.587	6461
963.813	6345
964.04	6350
964.266	6250
964.493	6238
964.719	6245
964.945	6230
965.171	6101
965.398	6118
965.624	6111
965.85	6011
966.076	6064
966.302	6078
966.528	5960
966.754	6042
966.98	5979
967.206	5886
967.431	5781
967.657	5935
967.883	5900
968.109	5864
968.334	5817
968.56	5724
968.785	5808
969.011	5666
969.236	5790
969.462	5678
969.687	5677
969.912	5668
970.138	5665
970.363	5627
970.588	5573
970.813	5537
971.038	5561
971.263	5533
971.488	5524
971.713	5590
971.938	5530
972.163	5416
972.388	5424
972.613	5363
972.838	5347
973.062	5306
973.287	5303
973.512	5232
973.736	5254
973.961	5241
974.185	5172
974.41	5198
974.634	5039
974.858	5021
975.083	5002
975.307	5084
975.531	4997
975.755	4905
975.98	4905
976.204	4782
976.428	4773
976.652	4811
976.876	4718
977.1	4757
977.324	4739
977.547	4760
977.771	4745
977.995	4725
978.219	4652
978.442	4731
978.666	4621
978.89	4650
979.113	4592
979.337	4593
979.56	4587
979.783	4680
980.007	4509
980.23	4529
980.453	4482
980.677	4511
980.9	4479
981.123	4365
981.346	4515
981.569	4370
981.792	4405
982.015	4346
982.238	4254
982.461	4263
982.684	4266
982.907	4146
983.129	4172
983.352	4175
983.575	4106
983.797	4139
984.02	4066
984.242	4064
984.465	4079
984.687	4055
984.91	4104
985.132	4061
985.354	4044
985.577	3986
985.799	3974
986.021	3912
986.243	3922
986.465	3957
986.687	3935
986.909	3956
987.131	3891
987.353	3860
987.575	3873
987.797	3810
988.019	3722
988.241	3800
988.462	3763
988.684	3789
988.906	3805
989.127	3814
989.349	3690
989.57	3692
989.792	3754
990.013	3709
990.234	3681
990.456	3725
990.677	3691
990.898	3606
991.119	3642
991.341	3627
991.562	3541
991.783	3593
992.004	3481
992.225	3419
992.446	3513
992.667	3428
992.887	3454
993.108	3353
993.329	3451
993.55	3400
993.77	3302
993.991	3350
994.212	3329
994.432	3282
994.653	3300
994.873	3239
995.093	3153
995.314	3142
995.534	3252
995.754	3228
995.975	3258
996.195	3126
996.415	3208
996.635	3134
996.855	3185
997.075	3165
997.295	3112
997.515	3111
997.735	3158
997.955	3077
998.174	3100
998.394	3074
998.614	3138
998.834	3031
999.053	3080
999.273	3045
999.492	3082
999.712	3018
999.931	2960
1000.151	2982
1000.37	2978
1000.589	3013
1000.809	2918
1001.028	3021
1001.247	2929
1001.466	2828
1001.685	2933
1001.904	2865
1002.123	2848
1002.342	2868
1002.561	2738
1002.78	2832
1002.999	2860
1003.218	2789
1003.436	2754
1003.655	2799
1003.874	2696
1004.092	2684
1004.311	2811
1004.53	2711
1004.748	2740
1004.966	2671
1005.185	2721
1005.403	2714
1005.622	2630
1005.84	2752
1006.058	2654
1006.276	2696
1006.494	3131
1006.712	2655
1006.931	2705
1007.149	2616
1007.367	2649
1007.584	2652
1007.802	2667
1008.02	2636
1008.238	2719
1008.456	2736
1008.673	2603
1008.891	2697
1009.109	2675
1009.326	2706
1009.544	2821
1009.761	2777
1009.979	2846
1010.196	2909
1010.413	3015
1010.631	3080
1010.848	3166
1011.065	3171
1011.282	3127
1011.5	3081
1011.717	3141
1011.934	3043
1012.151	3125
1012.368	3077
1012.585	2987
1012.801	3081
1013.018	3031
1013.235	2991
1013.452	3004
1013.669	3063
1013.885	3015
1014.102	3106
1014.318	3025
1014.535	2974
1014.751	2989
1014.968	3001
1015.184	2995
1015.401	2920
1015.617	2902
1015.833	2832
1016.049	2869
1016.266	2784
1016.482	2769
1016.698	2689
1016.914	2747
1017.13	2690
1017.346	2672
1017.562	2704
1017.778	2627
1017.993	2609
1018.209	2655
1018.425	2633
1018.641	2599
1018.856	2569
1019.072	2542
1019.288	2630
1019.503	2577
1019.719	2471
1019.934	2533
1020.149	2542
1020.365	2493
1020.58	2417
1020.795	2446
1021.011	2364
1021.226	2327
1021.441	2296
1021.656	2219
1021.871	2127
1022.086	2112
1022.301	2093
1022.516	2066
1022.731	2088
1022.946	1994
1023.16	1971
1023.375	1952
1023.59	1885
1023.804	1831
1024.019	1932
1024.234	1761
1024.448	1805
1024.663	1733
1024.877	1730
1025.092	1691
1025.306	1684
1025.52	1595
1025.734	1662
1025.949	1550
1026.163	1488
1026.377	1447
1026.591	1486
1026.805	1391
1027.019	1346
1027.233	1328
1027.447	1261
1027.661	1351
1027.875	1296
1028.088	1281
1028.302	1199
1028.516	1184
1028.73	1166
1028.943	1111
1029.157	1045
1029.37	983
1029.584	-3
1029.797	2
1030.011	1
1030.224	-3
