Data from QEP037381__281__16-16-39-906.txt Node

Date: Fri Dec 16 16:16:39 EST 2022
User: dcclab
Spectrometer: QEP03738
Trigger mode: 4
Integration Time (sec): 1.000000E1
Scans to average: 1
Electric dark correction enabled: true
Nonlinearity correction enabled: false
Boxcar width: 0
XAxis mode: Wavelengths
Number of Pixels in Spectrum: 1044
>>>>>Begin Spectral Data<<<<<
784.041	12
784.3	3
784.558	-4
784.817	-3
785.075	113639
785.334	19064
785.592	8669
785.851	5973
786.109	4511
786.368	3553
786.626	2881
786.884	2375
787.143	2004
787.401	1646
787.659	1487
787.917	1290
788.175	1153
788.433	1039
788.691	906
788.949	866
789.207	813
789.465	708
789.723	689
789.98	629
790.238	662
790.496	638
790.753	606
791.011	646
791.268	567
791.526	555
791.783	581
792.041	553
792.298	482
792.556	545
792.813	511
793.07	494
793.327	473
793.584	570
793.841	490
794.099	489
794.356	554
794.613	475
794.869	510
795.126	479
795.383	457
795.64	474
795.897	433
796.153	502
796.41	480
796.667	464
796.923	483
797.18	476
797.436	503
797.693	469
797.949	528
798.206	559
798.462	465
798.718	534
798.974	509
799.231	560
799.487	543
799.743	563
799.999	599
800.255	591
800.511	597
800.767	645
801.023	646
801.279	694
801.534	749
801.79	824
802.046	884
802.302	1072
802.557	1250
802.813	1625
803.068	2064
803.324	2933
803.579	4053
803.835	5622
804.09	7731
804.345	10241
804.601	12892
804.856	15633
805.111	18020
805.366	19897
805.621	21241
805.876	22245
806.131	22865
806.386	23397
806.641	23760
806.896	24213
807.151	24760
807.406	25114
807.661	25535
807.915	25941
808.17	26477
808.425	26803
808.679	26953
808.934	27387
809.188	27597
809.443	27962
809.697	28377
809.951	28382
810.206	28724
810.46	29045
810.714	29267
810.968	29743
811.223	29744
811.477	30047
811.731	30340
811.985	30546
812.239	30711
812.493	30868
812.747	31011
813	31067
813.254	31201
813.508	31383
813.762	31583
814.015	31714
814.269	32105
814.522	32235
814.776	32715
815.03	33070
815.283	33437
815.536	34170
815.79	34601
816.043	35319
816.296	35736
816.55	36108
816.803	36476
817.056	36991
817.309	37349
817.562	37719
817.815	38168
818.068	38437
818.321	38973
818.574	39325
818.827	39879
819.079	40327
819.332	41053
819.585	41455
819.838	42035
820.09	42425
820.343	42628
820.595	42970
820.848	43196
821.1	43401
821.353	43426
821.605	43283
821.857	43481
822.11	43182
822.362	43121
822.614	43028
822.866	43256
823.118	43069
823.37	43238
823.622	43505
823.874	43240
824.126	43698
824.378	43728
824.63	43900
824.882	43988
825.134	43798
825.385	43961
825.637	43803
825.888	43626
826.14	43600
826.392	43477
826.643	43315
826.895	43246
827.146	43062
827.397	43171
827.649	43130
827.9	42839
828.151	42938
828.402	43202
828.653	43281
828.905	43201
829.156	43432
829.407	43461
829.658	43287
829.909	43451
830.159	43528
830.41	43178
830.661	42855
830.912	42697
831.162	42568
831.413	42525
831.664	42574
831.914	42533
832.165	42392
832.415	42409
832.666	42349
832.916	42377
833.167	42424
833.417	42407
833.667	42309
833.917	42227
834.168	42119
834.418	41872
834.668	41741
834.918	41574
835.168	41449
835.418	41403
835.668	41152
835.918	41036
836.167	41008
836.417	41028
836.667	40788
836.917	40793
837.166	40747
837.416	40735
837.666	40851
837.915	40727
838.165	40735
838.414	40633
838.663	40474
838.913	40554
839.162	40499
839.411	40246
839.661	40053
839.91	40099
840.159	39985
840.408	40010
840.657	39810
840.906	39780
841.155	40100
841.404	39918
841.653	39982
841.902	39990
842.15	40074
842.399	39915
842.648	39943
842.897	39747
843.145	39692
843.394	39285
843.642	39209
843.891	39032
844.139	38964
844.388	38710
844.636	38566
844.884	38561
845.133	38329
845.381	38398
845.629	38440
845.877	38262
846.125	38315
846.373	38287
846.621	38059
846.869	37992
847.117	37799
847.365	37637
847.613	37437
847.861	37194
848.108	37208
848.356	37076
848.604	37095
848.851	37111
849.099	37287
849.346	37276
849.594	37488
849.841	37485
850.089	37654
850.336	37566
850.583	37531
850.831	37272
851.078	37151
851.325	37178
851.572	37077
851.819	36852
852.066	36247
852.313	35849
852.56	35597
852.807	35406
853.054	35376
853.301	35135
853.548	35254
853.794	35441
854.041	35563
854.288	35634
854.534	35951
854.781	35944
855.028	35704
855.274	35765
855.52	35527
855.767	35385
856.013	35345
856.26	35602
856.506	35003
856.752	35036
856.998	35052
857.244	35131
857.49	35300
857.736	35349
857.982	35440
858.228	35233
858.474	35028
858.72	34636
858.966	34534
859.212	34156
859.458	33884
859.703	33452
859.949	33228
860.195	33139
860.44	32827
860.686	32740
860.931	32643
861.177	32444
861.422	32457
861.667	32257
861.913	32438
862.158	32352
862.403	32416
862.648	32470
862.893	32532
863.138	32582
863.384	32549
863.629	32208
863.873	32335
864.118	32167
864.363	32016
864.608	31946
864.853	32009
865.098	31764
865.342	31576
865.587	31532
865.832	31396
866.076	31429
866.321	31286
866.565	31156
866.81	30991
867.054	30914
867.298	30743
867.543	30717
867.787	30684
868.031	30626
868.275	30536
868.519	30615
868.764	30500
869.008	30508
869.252	30245
869.496	30228
869.739	30076
869.983	30242
870.227	30202
870.471	30044
870.715	30400
870.958	30227
871.202	30341
871.446	30485
871.689	30305
871.933	30244
872.176	30375
872.42	30419
872.663	30319
872.906	30176
873.15	30009
873.393	29907
873.636	29697
873.879	29542
874.122	29190
874.366	28914
874.609	28618
874.852	28495
875.095	28345
875.337	28290
875.58	28042
875.823	28119
876.066	27885
876.309	27965
876.551	27679
876.794	27603
877.037	27554
877.279	27326
877.522	27472
877.764	27533
878.007	27532
878.249	27410
878.491	27379
878.734	27293
878.976	27162
879.218	27075
879.46	27005
879.702	26747
879.945	26599
880.187	26434
880.429	26158
880.671	26096
880.912	26086
881.154	25804
881.396	25833
881.638	25807
881.88	25905
882.121	25747
882.363	25806
882.605	25724
882.846	25601
883.088	25523
883.329	25526
883.571	25548
883.812	25626
884.053	25922
884.295	26254
884.536	26524
884.777	26208
885.018	26119
885.259	25962
885.5	25891
885.742	25989
885.982	25866
886.223	25627
886.464	25577
886.705	25368
886.946	25179
887.187	24876
887.428	24608
887.668	24302
887.909	24038
888.15	23855
888.39	23658
888.631	23577
888.871	23268
889.111	23225
889.352	23094
889.592	22760
889.833	22747
890.073	22598
890.313	22542
890.553	22160
890.793	22122
891.033	22139
891.273	21943
891.513	21894
891.753	21907
891.993	21863
892.233	21818
892.473	21901
892.713	21864
892.952	21908
893.192	21932
893.432	21795
893.671	21772
893.911	21737
894.15	21633
894.39	21435
894.629	21344
894.869	21241
895.108	20981
895.347	20981
895.587	20961
895.826	20931
896.065	20837
896.304	20888
896.543	20891
896.782	20679
897.021	20639
897.26	20532
897.499	20601
897.738	20593
897.977	20386
898.216	20191
898.454	19989
898.693	19840
898.932	19836
899.17	19777
899.409	19731
899.647	19652
899.886	19625
900.124	19671
900.363	19562
900.601	19586
900.839	19664
901.078	19744
901.316	19698
901.554	19740
901.792	19923
902.03	19758
902.268	19700
902.506	19784
902.744	19664
902.982	19552
903.22	19310
903.458	19092
903.695	18935
903.933	18633
904.171	18241
904.409	18018
904.646	17850
904.884	17672
905.121	17545
905.359	17215
905.596	17085
905.833	16916
906.071	16932
906.308	16855
906.545	16835
906.783	16705
907.02	16674
907.257	16709
907.494	16608
907.731	16616
907.968	16575
908.205	16279
908.442	16235
908.679	16210
908.915	16070
909.152	15911
909.389	15696
909.626	15756
909.862	15618
910.099	15502
910.335	15565
910.572	15410
910.808	15411
911.045	15391
911.281	15321
911.518	15168
911.754	15047
911.99	15023
912.226	14901
912.463	14779
912.699	14666
912.935	14613
913.171	14511
913.407	14360
913.643	14335
913.879	14160
914.114	13914
914.35	13880
914.586	13704
914.822	13623
915.057	13656
915.293	13358
915.529	13283
915.764	13407
916	13283
916.235	13336
916.471	13269
916.706	13105
916.941	13246
917.177	13119
917.412	13219
917.647	13102
917.882	13077
918.117	13199
918.352	13078
918.588	13055
918.823	12878
919.057	12815
919.292	12586
919.527	12557
919.762	12395
919.997	12273
920.232	12197
920.466	12078
920.701	11842
920.935	11845
921.17	11763
921.405	11751
921.639	11686
921.873	11715
922.108	11607
922.342	11594
922.576	11442
922.811	11392
923.045	11423
923.279	11416
923.513	11304
923.747	11352
923.981	11180
924.215	11096
924.449	10995
924.683	10994
924.917	10861
925.151	10847
925.385	10885
925.618	10755
925.852	10751
926.086	10740
926.319	10757
926.553	10650
926.786	10598
927.02	10590
927.253	10666
927.486	10619
927.72	10542
927.953	10536
928.186	10506
928.42	10462
928.653	10398
928.886	10381
929.119	10391
929.352	10339
929.585	10201
929.818	10193
930.051	10119
930.284	10041
930.516	9829
930.749	9803
930.982	9844
931.215	9702
931.447	9680
931.68	9658
931.912	9648
932.145	9579
932.377	9660
932.61	9695
932.842	9435
933.074	9571
933.307	9495
933.539	9596
933.771	9555
934.003	9535
934.236	9607
934.468	9578
934.7	9394
934.932	9434
935.164	9398
935.395	9452
935.627	9399
935.859	9344
936.091	9262
936.323	9329
936.554	9284
936.786	9289
937.017	9072
937.249	9113
937.481	9001
937.712	9085
937.943	9039
938.175	9024
938.406	9021
938.637	9010
938.869	8919
939.1	8982
939.331	8975
939.562	8873
939.793	8868
940.024	8828
940.255	8777
940.486	8659
940.717	8693
940.948	8620
941.179	8554
941.409	8576
941.64	8595
941.871	8594
942.102	8529
942.332	8551
942.563	8557
942.793	8483
943.024	8426
943.254	8495
943.484	8531
943.715	8510
943.945	8508
944.175	8363
944.405	8391
944.636	8391
944.866	8401
945.096	8388
945.326	8235
945.556	8331
945.786	8289
946.016	8213
946.245	8118
946.475	8035
946.705	7979
946.935	7965
947.164	7936
947.394	7912
947.624	7858
947.853	7880
948.083	7811
948.312	7787
948.542	7743
948.771	7687
949	7695
949.23	7691
949.459	7708
949.688	7784
949.917	7645
950.146	7651
950.375	7679
950.604	7579
950.833	7633
951.062	7556
951.291	7546
951.52	7483
951.749	7394
951.978	7385
952.206	7417
952.435	7345
952.664	7385
952.892	7448
953.121	7359
953.349	7355
953.578	7276
953.806	7253
954.035	7182
954.263	7134
954.491	7121
954.719	7088
954.948	7022
955.176	7063
955.404	6971
955.632	7013
955.86	6933
956.088	6906
956.316	6876
956.544	6898
956.772	6773
956.999	6744
957.227	6833
957.455	6630
957.683	6626
957.91	6511
958.138	6606
958.365	6504
958.593	6471
958.82	6372
959.048	6518
959.275	6436
959.502	6348
959.73	6356
959.957	6351
960.184	6358
960.411	6358
960.638	6366
960.865	6290
961.092	6383
961.319	6207
961.546	6334
961.773	6389
962	6255
962.227	6256
962.454	6258
962.68	6154
962.907	6248
963.134	6118
963.36	6105
963.587	6090
963.813	5993
964.04	5967
964.266	5907
964.493	5993
964.719	5882
964.945	5905
965.171	5782
965.398	5789
965.624	5769
965.85	5668
966.076	5642
966.302	5736
966.528	5629
966.754	5633
966.98	5647
967.206	5612
967.431	5530
967.657	5620
967.883	5548
968.109	5583
968.334	5484
968.56	5423
968.785	5462
969.011	5419
969.236	5475
969.462	5357
969.687	5368
969.912	5422
970.138	5409
970.363	5330
970.588	5278
970.813	5266
971.038	5226
971.263	5248
971.488	5267
971.713	5215
971.938	5184
972.163	5103
972.388	5136
972.613	5094
972.838	5032
973.062	5042
973.287	5059
973.512	4891
973.736	4967
973.961	4937
974.185	4893
974.41	4874
974.634	4762
974.858	4763
975.083	4806
975.307	4788
975.531	4711
975.755	4642
975.98	4660
976.204	4602
976.428	4566
976.652	4580
976.876	4556
977.1	4482
977.324	4467
977.547	4519
977.771	4501
977.995	4457
978.219	4415
978.442	4508
978.666	4431
978.89	4395
979.113	4398
979.337	4382
979.56	4362
979.783	4429
980.007	4292
980.23	4334
980.453	4218
980.677	4253
980.9	4268
981.123	4165
981.346	4209
981.569	4196
981.792	4189
982.015	4112
982.238	4072
982.461	4095
982.684	4100
982.907	3950
983.129	3975
983.352	4018
983.575	3966
983.797	3976
984.02	3891
984.242	3885
984.465	3871
984.687	3883
984.91	3918
985.132	3847
985.354	3839
985.577	3845
985.799	3761
986.021	3684
986.243	3729
986.465	3754
986.687	3747
986.909	3779
987.131	3721
987.353	3709
987.575	3689
987.797	3648
988.019	3538
988.241	3582
988.462	3564
988.684	3585
988.906	3639
989.127	3632
989.349	3506
989.57	3546
989.792	3571
990.013	3544
990.234	3551
990.456	3551
990.677	3535
990.898	3439
991.119	3478
991.341	3469
991.562	3382
991.783	3439
992.004	3380
992.225	3298
992.446	3338
992.667	3264
992.887	3329
993.108	3198
993.329	3338
993.55	3236
993.77	3198
993.991	3165
994.212	3178
994.432	3162
994.653	3178
994.873	3105
995.093	3003
995.314	3025
995.534	3107
995.754	3100
995.975	3119
996.195	2975
996.415	3042
996.635	3007
996.855	3025
997.075	2989
997.295	2974
997.515	2950
997.735	2990
997.955	2978
998.174	2982
998.394	2924
998.614	2960
998.834	2874
999.053	2984
999.273	2917
999.492	2964
999.712	2932
999.931	2810
1000.151	2880
1000.37	2862
1000.589	2870
1000.809	2781
1001.028	2905
1001.247	2790
1001.466	2672
1001.685	2801
1001.904	2725
1002.123	2721
1002.342	2734
1002.561	2644
1002.78	2670
1002.999	2710
1003.218	2656
1003.436	2640
1003.655	2678
1003.874	2588
1004.092	2604
1004.311	2657
1004.53	2596
1004.748	2645
1004.966	2556
1005.185	2638
1005.403	2604
1005.622	2548
1005.84	2644
1006.058	2520
1006.276	2527
1006.494	3030
1006.712	2558
1006.931	2603
1007.149	2477
1007.367	2501
1007.584	2531
1007.802	2566
1008.02	2490
1008.238	2602
1008.456	2627
1008.673	2487
1008.891	2568
1009.109	2532
1009.326	2632
1009.544	2680
1009.761	2597
1009.979	2710
1010.196	2725
1010.413	2814
1010.631	2952
1010.848	2997
1011.065	2999
1011.282	2928
1011.5	2889
1011.717	2974
1011.934	2913
1012.151	2915
1012.368	2927
1012.585	2801
1012.801	2893
1013.018	2886
1013.235	2812
1013.452	2843
1013.669	2835
1013.885	2832
1014.102	2858
1014.318	2828
1014.535	2779
1014.751	2851
1014.968	2819
1015.184	2786
1015.401	2685
1015.617	2723
1015.833	2634
1016.049	2653
1016.266	2629
1016.482	2627
1016.698	2546
1016.914	2587
1017.13	2495
1017.346	2478
1017.562	2551
1017.778	2471
1017.993	2440
1018.209	2455
1018.425	2474
1018.641	2414
1018.856	2447
1019.072	2433
1019.288	2473
1019.503	2449
1019.719	2311
1019.934	2317
1020.149	2436
1020.365	2330
1020.58	2276
1020.795	2322
1021.011	2215
1021.226	2160
1021.441	2199
1021.656	2103
1021.871	2063
1022.086	1996
1022.301	1949
1022.516	1952
1022.731	2000
1022.946	1903
1023.16	1850
1023.375	1843
1023.59	1768
1023.804	1754
1024.019	1829
1024.234	1685
1024.448	1716
1024.663	1642
1024.877	1615
1025.092	1619
1025.306	1643
1025.52	1506
1025.734	1603
1025.949	1467
1026.163	1428
1026.377	1379
1026.591	1430
1026.805	1326
1027.019	1319
1027.233	1288
1027.447	1224
1027.661	1279
1027.875	1242
1028.088	1241
1028.302	1122
1028.516	1132
1028.73	1102
1028.943	1083
1029.157	998
1029.37	934
1029.584	-1
1029.797	-5
1030.011	-1
1030.224	-1
