Data from QEP037381__16__13-24-24-033.txt Node

Date: Fri Apr 28 13:24:24 EDT 2023
User: dcclab
Spectrometer: QEP03738
Trigger mode: 4
Integration Time (sec): 1.000000E1
Scans to average: 1
Electric dark correction enabled: true
Nonlinearity correction enabled: false
Boxcar width: 0
XAxis mode: Wavelengths
Number of Pixels in Spectrum: 1044
>>>>>Begin Spectral Data<<<<<
784.041	8
784.3	-1
784.558	-1
784.817	-2
785.075	67121
785.334	13462
785.592	6970
785.851	4943
786.109	3724
786.368	2933
786.626	2370
786.884	1963
787.143	1678
787.401	1365
787.659	1269
787.917	1069
788.175	961
788.433	874
788.691	784
788.949	709
789.207	690
789.465	617
789.723	584
789.98	524
790.238	574
790.496	547
790.753	530
791.011	567
791.268	500
791.526	490
791.783	505
792.041	491
792.298	402
792.556	475
792.813	448
793.07	435
793.327	429
793.584	510
793.841	431
794.099	441
794.356	501
794.613	398
794.869	433
795.126	404
795.383	377
795.64	412
795.897	371
796.153	423
796.41	411
796.667	405
796.923	396
797.18	400
797.436	427
797.693	382
797.949	429
798.206	480
798.462	384
798.718	446
798.974	420
799.231	452
799.487	448
799.743	455
799.999	483
800.255	472
800.511	450
800.767	477
801.023	462
801.279	506
801.534	538
801.79	574
802.046	590
802.302	705
802.557	807
802.813	992
803.068	1229
803.324	1686
803.579	2336
803.835	3187
804.09	4333
804.345	5659
804.601	6971
804.856	8258
805.111	9219
805.366	9802
805.621	10121
805.876	10456
806.131	10661
806.386	10858
806.641	10938
806.896	11135
807.151	11383
807.406	11467
807.661	11699
807.915	11897
808.17	12203
808.425	12178
808.679	12384
808.934	12647
809.188	12689
809.443	12928
809.697	12942
809.951	13039
810.206	13162
810.46	13304
810.714	13420
810.968	13529
811.223	13607
811.477	13739
811.731	13913
811.985	13958
812.239	13895
812.493	14066
812.747	14108
813	14113
813.254	14182
813.508	14390
813.762	14292
814.015	14382
814.269	14544
814.522	14696
814.776	14794
815.03	15060
815.283	15165
815.536	15469
815.79	15705
816.043	15937
816.296	16066
816.55	16296
816.803	16432
817.056	16803
817.309	16874
817.562	16990
817.815	17190
818.068	17335
818.321	17555
818.574	17846
818.827	18087
819.079	18412
819.332	18854
819.585	18833
819.838	19214
820.09	19174
820.343	19487
820.595	19507
820.848	19624
821.1	19728
821.353	19708
821.605	19587
821.857	19816
822.11	19623
822.362	19549
822.614	19517
822.866	19621
823.118	19586
823.37	19714
823.622	19698
823.874	19715
824.126	19896
824.378	19833
824.63	19974
824.882	19932
825.134	19940
825.385	19978
825.637	19838
825.888	19764
826.14	19767
826.392	19641
826.643	19535
826.895	19558
827.146	19391
827.397	19396
827.649	19359
827.9	19270
828.151	19358
828.402	19326
828.653	19468
828.905	19483
829.156	19579
829.407	19460
829.658	19559
829.909	19469
830.159	19298
830.41	19228
830.661	19194
830.912	18989
831.162	19047
831.413	18930
831.664	19033
831.914	18935
832.165	18866
832.415	18945
832.666	18942
832.916	19012
833.167	18988
833.417	18890
833.667	18778
833.917	18788
834.168	18720
834.418	18651
834.668	18534
834.918	18398
835.168	18382
835.418	18364
835.668	18315
835.918	18388
836.167	18281
836.417	18280
836.667	18250
836.917	18072
837.166	18078
837.416	17968
837.666	18073
837.915	17946
838.165	17853
838.414	17701
838.663	17718
838.913	17722
839.162	17712
839.411	17700
839.661	17512
839.91	17603
840.159	17478
840.408	17566
840.657	17479
840.906	17571
841.155	17488
841.404	17432
841.653	17527
841.902	17451
842.15	17462
842.399	17478
842.648	17387
842.897	17315
843.145	17074
843.394	17178
843.642	16882
843.891	16982
844.139	17003
844.388	16822
844.636	16729
844.884	16723
845.133	16626
845.381	16667
845.629	16583
845.877	16554
846.125	16533
846.373	16577
846.621	16422
846.869	16372
847.117	16411
847.365	16293
847.613	16254
847.861	16221
848.108	16199
848.356	16051
848.604	16068
848.851	16025
849.099	16052
849.346	16122
849.594	16174
849.841	16242
850.089	16206
850.336	16260
850.583	16260
850.831	16142
851.078	16012
851.325	16002
851.572	16026
851.819	15712
852.066	15504
852.313	15327
852.56	15211
852.807	15255
853.054	15168
853.301	15095
853.548	15116
853.794	15155
854.041	15171
854.288	15245
854.534	15490
854.781	15401
855.028	15265
855.274	15261
855.52	15140
855.767	15020
856.013	15058
856.26	15222
856.506	14820
856.752	14906
856.998	14882
857.244	14864
857.49	14903
857.736	14991
857.982	14949
858.228	14974
858.474	14798
858.72	14768
858.966	14557
859.212	14485
859.458	14338
859.703	14153
859.949	14128
860.195	14058
860.44	13908
860.686	13771
860.931	13828
861.177	13646
861.422	13621
861.667	13709
861.913	13683
862.158	13760
862.403	13874
862.648	13845
862.893	13867
863.138	13770
863.384	13733
863.629	13753
863.873	13679
864.118	13607
864.363	13516
864.608	13457
864.853	13405
865.098	13248
865.342	13295
865.587	13166
865.832	13201
866.076	13167
866.321	13051
866.565	12959
866.81	13037
867.054	13004
867.298	12943
867.543	12889
867.787	12962
868.031	12859
868.275	12834
868.519	12861
868.764	12883
869.008	12856
869.252	12772
869.496	12781
869.739	12760
869.983	12673
870.227	12629
870.471	12608
870.715	12673
870.958	12668
871.202	12604
871.446	12672
871.689	12617
871.933	12724
872.176	12592
872.42	12584
872.663	12501
872.906	12538
873.15	12382
873.393	12245
873.636	12277
873.879	12206
874.122	12036
874.366	11914
874.609	11887
874.852	11760
875.095	11810
875.337	11722
875.58	11620
875.823	11638
876.066	11610
876.309	11651
876.551	11421
876.794	11417
877.037	11519
877.279	11423
877.522	11383
877.764	11455
878.007	11392
878.249	11477
878.491	11428
878.734	11403
878.976	11324
879.218	11275
879.46	11220
879.702	11191
879.945	11088
880.187	10970
880.429	10909
880.671	10829
880.912	10807
881.154	10779
881.396	10649
881.638	10701
881.88	10697
882.121	10632
882.363	10658
882.605	10630
882.846	10601
883.088	10625
883.329	10515
883.571	10462
883.812	10430
884.053	10554
884.295	10517
884.536	10721
884.777	10585
885.018	10591
885.259	10590
885.5	10470
885.742	10636
885.982	10478
886.223	10339
886.464	10281
886.705	10251
886.946	10300
887.187	10109
887.428	10105
887.668	9958
887.909	9905
888.15	9734
888.39	9802
888.631	9775
888.871	9719
889.111	9557
889.352	9475
889.592	9484
889.833	9407
890.073	9298
890.313	9348
890.553	9108
890.793	9150
891.033	9093
891.273	9087
891.513	9050
891.753	9073
891.993	9080
892.233	9031
892.473	9093
892.713	9083
892.952	8971
893.192	9103
893.432	8988
893.671	8983
893.911	8931
894.15	8847
894.39	8823
894.629	8738
894.869	8733
895.108	8646
895.347	8621
895.587	8568
895.826	8505
896.065	8494
896.304	8471
896.543	8462
896.782	8426
897.021	8435
897.26	8416
897.499	8436
897.738	8413
897.977	8288
898.216	8185
898.454	8131
898.693	8118
898.932	8118
899.17	8069
899.409	7995
899.647	7945
899.886	8007
900.124	7982
900.363	7933
900.601	7964
900.839	7946
901.078	7927
901.316	7896
901.554	7982
901.792	7969
902.03	7927
902.268	7985
902.506	7910
902.744	7880
902.982	7808
903.22	7771
903.458	7686
903.695	7662
903.933	7494
904.171	7393
904.409	7275
904.646	7303
904.884	7135
905.121	7145
905.359	7064
905.596	6995
905.833	6910
906.071	6916
906.308	6954
906.545	6882
906.783	6850
907.02	6800
907.257	6828
907.494	6808
907.731	6773
907.968	6834
908.205	6726
908.442	6676
908.679	6701
908.915	6609
909.152	6598
909.389	6455
909.626	6448
909.862	6368
910.099	6349
910.335	6357
910.572	6259
910.808	6325
911.045	6301
911.281	6220
911.518	6224
911.754	6209
911.99	6185
912.226	6171
912.463	6105
912.699	6048
912.935	5989
913.171	5925
913.407	5868
913.643	5898
913.879	5864
914.114	5716
914.35	5676
914.586	5645
914.822	5609
915.057	5640
915.293	5523
915.529	5446
915.764	5514
916	5511
916.235	5443
916.471	5491
916.706	5464
916.941	5440
917.177	5441
917.412	5470
917.647	5470
917.882	5395
918.117	5451
918.352	5390
918.588	5409
918.823	5290
919.057	5249
919.292	5146
919.527	5215
919.762	5059
919.997	5099
920.232	4994
920.466	4991
920.701	4879
920.935	4907
921.17	4859
921.405	4815
921.639	4864
921.873	4798
922.108	4817
922.342	4791
922.576	4735
922.811	4692
923.045	4741
923.279	4784
923.513	4644
923.747	4749
923.981	4613
924.215	4595
924.449	4505
924.683	4524
924.917	4537
925.151	4506
925.385	4560
925.618	4481
925.852	4484
926.086	4360
926.319	4474
926.553	4439
926.786	4484
927.02	4425
927.253	4500
927.486	4451
927.72	4350
927.953	4421
928.186	4386
928.42	4351
928.653	4269
928.886	4292
929.119	4334
929.352	4285
929.585	4282
929.818	4158
930.051	4153
930.284	4158
930.516	4080
930.749	4059
930.982	4076
931.215	4049
931.447	3970
931.68	3999
931.912	3970
932.145	3977
932.377	4000
932.61	4056
932.842	3914
933.074	3985
933.307	3976
933.539	4000
933.771	4070
934.003	3960
934.236	4016
934.468	4044
934.7	3939
934.932	3966
935.164	3911
935.395	3906
935.627	3878
935.859	3891
936.091	3831
936.323	3869
936.554	3925
936.786	3851
937.017	3746
937.249	3856
937.481	3687
937.712	3798
937.943	3760
938.175	3735
938.406	3747
938.637	3796
938.869	3689
939.1	3786
939.331	3703
939.562	3742
939.793	3684
940.024	3735
940.255	3715
940.486	3635
940.717	3658
940.948	3628
941.179	3546
941.409	3589
941.64	3596
941.871	3623
942.102	3581
942.332	3553
942.563	3622
942.793	3573
943.024	3504
943.254	3575
943.484	3638
943.715	3592
943.945	3582
944.175	3509
944.405	3497
944.636	3464
944.866	3542
945.096	3533
945.326	3442
945.556	3528
945.786	3527
946.016	3473
946.245	3409
946.475	3400
946.705	3412
946.935	3353
947.164	3406
947.394	3337
947.624	3351
947.853	3372
948.083	3340
948.312	3303
948.542	3251
948.771	3206
949	3236
949.23	3249
949.459	3235
949.688	3329
949.917	3275
950.146	3236
950.375	3309
950.604	3194
950.833	3290
951.062	3282
951.291	3215
951.52	3202
951.749	3243
951.978	3151
952.206	3158
952.435	3109
952.664	3186
952.892	3143
953.121	3168
953.349	3187
953.578	3147
953.806	3127
954.035	3042
954.263	3093
954.491	3014
954.719	3055
954.948	3023
955.176	2979
955.404	2915
955.632	3002
955.86	2984
956.088	2955
956.316	3001
956.544	3016
956.772	2899
956.999	2909
957.227	2947
957.455	2878
957.683	2871
957.91	2829
958.138	2821
958.365	2799
958.593	2851
958.82	2808
959.048	2831
959.275	2845
959.502	2779
959.73	2775
959.957	2807
960.184	2854
960.411	2762
960.638	2818
960.865	2777
961.092	2783
961.319	2651
961.546	2789
961.773	2813
962	2740
962.227	2786
962.454	2765
962.68	2728
962.907	2724
963.134	2677
963.36	2698
963.587	2712
963.813	2630
964.04	2665
964.266	2571
964.493	2647
964.719	2642
964.945	2641
965.171	2521
965.398	2584
965.624	2623
965.85	2509
966.076	2511
966.302	2582
966.528	2503
966.754	2552
966.98	2508
967.206	2531
967.431	2435
967.657	2551
967.883	2508
968.109	2511
968.334	2437
968.56	2434
968.785	2436
969.011	2436
969.236	2460
969.462	2437
969.687	2408
969.912	2460
970.138	2486
970.363	2370
970.588	2407
970.813	2361
971.038	2332
971.263	2372
971.488	2395
971.713	2391
971.938	2384
972.163	2300
972.388	2300
972.613	2285
972.838	2308
973.062	2293
973.287	2245
973.512	2207
973.736	2262
973.961	2225
974.185	2230
974.41	2251
974.634	2158
974.858	2150
975.083	2181
975.307	2219
975.531	2143
975.755	2115
975.98	2101
976.204	2061
976.428	2076
976.652	2078
976.876	2044
977.1	2083
977.324	2040
977.547	2065
977.771	2092
977.995	2074
978.219	1973
978.442	2149
978.666	2040
978.89	2019
979.113	2021
979.337	2027
979.56	1963
979.783	2075
980.007	2011
980.23	1962
980.453	1947
980.677	1991
980.9	1984
981.123	1910
981.346	2001
981.569	1965
981.792	1943
982.015	1909
982.238	1897
982.461	1912
982.684	1885
982.907	1837
983.129	1839
983.352	1893
983.575	1857
983.797	1856
984.02	1839
984.242	1829
984.465	1849
984.687	1857
984.91	1887
985.132	1825
985.354	1848
985.577	1838
985.799	1826
986.021	1740
986.243	1789
986.465	1790
986.687	1816
986.909	1836
987.131	1790
987.353	1759
987.575	1806
987.797	1766
988.019	1699
988.241	1779
988.462	1728
988.684	1745
988.906	1797
989.127	1801
989.349	1692
989.57	1746
989.792	1753
990.013	1754
990.234	1767
990.456	1815
990.677	1755
990.898	1721
991.119	1712
991.341	1723
991.562	1661
991.783	1693
992.004	1641
992.225	1630
992.446	1693
992.667	1581
992.887	1689
993.108	1560
993.329	1673
993.55	1613
993.77	1572
993.991	1561
994.212	1619
994.432	1580
994.653	1632
994.873	1586
995.093	1498
995.314	1545
995.534	1595
995.754	1612
995.975	1633
996.195	1524
996.415	1542
996.635	1550
996.855	1541
997.075	1510
997.295	1548
997.515	1510
997.735	1564
997.955	1531
998.174	1510
998.394	1510
998.614	1534
998.834	1509
999.053	1535
999.273	1505
999.492	1577
999.712	1522
999.931	1482
1000.151	1522
1000.37	1489
1000.589	1537
1000.809	1458
1001.028	1601
1001.247	1508
1001.466	1419
1001.685	1560
1001.904	1543
1002.123	1491
1002.342	1472
1002.561	1455
1002.78	1475
1002.999	1541
1003.218	1467
1003.436	1468
1003.655	1492
1003.874	1424
1004.092	1454
1004.311	1473
1004.53	1465
1004.748	1531
1004.966	1439
1005.185	1499
1005.403	1483
1005.622	1467
1005.84	1514
1006.058	1445
1006.276	1452
1006.494	1803
1006.712	1452
1006.931	1499
1007.149	1424
1007.367	1437
1007.584	1444
1007.802	1501
1008.02	1405
1008.238	1520
1008.456	1473
1008.673	1355
1008.891	1435
1009.109	1386
1009.326	1450
1009.544	1514
1009.761	1415
1009.979	1485
1010.196	1462
1010.413	1552
1010.631	1559
1010.848	1563
1011.065	1564
1011.282	1495
1011.5	1455
1011.717	1531
1011.934	1491
1012.151	1528
1012.368	1492
1012.585	1454
1012.801	1519
1013.018	1468
1013.235	1436
1013.452	1442
1013.669	1473
1013.885	1433
1014.102	1463
1014.318	1404
1014.535	1376
1014.751	1405
1014.968	1425
1015.184	1436
1015.401	1356
1015.617	1399
1015.833	1361
1016.049	1368
1016.266	1351
1016.482	1348
1016.698	1301
1016.914	1359
1017.13	1307
1017.346	1297
1017.562	1372
1017.778	1289
1017.993	1251
1018.209	1333
1018.425	1305
1018.641	1277
1018.856	1257
1019.072	1270
1019.288	1314
1019.503	1249
1019.719	1185
1019.934	1203
1020.149	1297
1020.365	1231
1020.58	1175
1020.795	1257
1021.011	1182
1021.226	1194
1021.441	1182
1021.656	1143
1021.871	1057
1022.086	1073
1022.301	1076
1022.516	1067
1022.731	1136
1022.946	1035
1023.16	1021
1023.375	996
1023.59	984
1023.804	951
1024.019	1061
1024.234	931
1024.448	976
1024.663	920
1024.877	936
1025.092	954
1025.306	949
1025.52	857
1025.734	963
1025.949	890
1026.163	852
1026.377	783
1026.591	862
1026.805	790
1027.019	798
1027.233	744
1027.447	697
1027.661	787
1027.875	752
1028.088	737
1028.302	686
1028.516	678
1028.73	689
1028.943	653
1029.157	630
1029.37	579
1029.584	1
1029.797	-2
1030.011	-2
1030.224	-1
